Voltage, ChA, Run #7
Time ( s )	Voltage ( V )
0.0000	0.280
0.1000	0.268
0.2000	0.263
0.3000	0.257
0.4000	0.244
0.5000	0.229
0.6000	0.226
0.7000	0.211
0.8000	0.197
0.9000	0.183
1.0000	0.175
1.1000	0.159
1.2000	0.150
1.3000	0.141
1.4000	0.125
1.5000	0.113
1.6000	0.104
1.7000	0.093
1.8000	0.084
1.9000	0.067
2.0000	0.062
2.1000	0.056
2.2000	0.044
2.3000	0.035
2.4000	0.026
2.5000	0.017
2.6000	0.009
2.7000	-0.003
2.8000	-0.011
2.9000	-0.020
3.0000	-0.028
3.1000	-0.036
3.2000	-0.046
3.3000	-0.056
3.4000	-0.064
3.5000	-0.074
3.6000	-0.082
3.7000	-0.092
3.8000	-0.102
3.9000	-0.111
4.0000	-0.121
4.1000	-0.133
4.2000	-0.143
4.3000	-0.153
4.4000	-0.164
4.5000	-0.175
4.6000	-0.184
4.7000	-0.195
4.8000	-0.207
4.9000	-0.216
5.0000	-0.225
5.1000	-0.234
5.2000	-0.239
5.3000	-0.254
5.4000	-0.254
5.5000	-0.264
5.6000	-0.266
5.7000	-0.270
5.8000	-0.280
5.9000	-0.279
6.0000	-0.281
6.1000	-0.284
6.2000	-0.282
6.3000	-0.285
6.4000	-0.281
6.5000	-0.277
6.6000	-0.276
6.7000	-0.273
6.8000	-0.266
6.9000	-0.261
7.0000	-0.254
7.1000	-0.248
7.2000	-0.237
7.3000	-0.230
7.4000	-0.220
7.5000	-0.208
7.6000	-0.199
7.7000	-0.187
7.8000	-0.175
7.9000	-0.165
8.0000	-0.156
8.1000	-0.142
8.2000	-0.130
8.3000	-0.122
8.4000	-0.111
8.5000	-0.101
8.6000	-0.090
8.7000	-0.083
8.8000	-0.073
8.9000	-0.064
9.0000	-0.058
9.1000	-0.051
9.2000	-0.044
9.3000	-0.038
9.4000	-0.034
9.5000	-0.028
9.6000	-0.023
9.7000	-0.020
9.8000	-0.016
9.9000	-0.013
10.0000	-0.011
10.1000	-0.009
10.2000	-0.006
10.3000	-0.005
10.4000	-0.003
10.5000	-0.001
10.6000	-6.104E-5
10.7000	0.001
10.8000	0.003
10.9000	0.004
11.0000	0.006
11.1000	0.007
11.2000	0.009
11.3000	0.011
11.4000	0.013
11.5000	0.016
11.6000	0.019
11.7000	0.022
11.8000	0.025
11.9000	0.029
12.0000	0.034
12.1000	0.038
12.2000	0.042
12.3000	0.049
12.4000	0.054
12.5000	0.059
12.6000	0.068
12.7000	0.071
12.8000	0.081
12.9000	0.087
13.0000	0.097
13.1000	0.104
13.2000	0.108
13.3000	0.120
13.4000	0.123
13.5000	0.131
13.6000	0.145
13.7000	0.148
13.8000	0.158
13.9000	0.164
14.0000	0.171
14.1000	0.179
14.2000	0.182
14.3000	0.188
14.4000	0.194
14.5000	0.199
14.6000	0.201
14.7000	0.199
14.8000	0.208
14.9000	0.199
15.0000	0.208
15.1000	0.216
15.2000	0.209
15.3000	0.210
15.4000	0.210
15.5000	0.208
15.6000	0.205
15.7000	0.194
15.8000	0.198
15.9000	0.194
16.0000	0.191
16.1000	0.184
16.2000	0.180
16.3000	0.179
16.4000	0.170
16.5000	0.162
16.6000	0.155
16.7000	0.152
16.8000	0.146
16.9000	0.141
17.0000	0.129
17.1000	0.122
17.2000	0.113
17.3000	0.107
17.4000	0.098
17.5000	0.092
17.6000	0.082
17.7000	0.076
17.8000	0.066
17.9000	0.063
18.0000	0.056
18.1000	0.044
18.2000	0.036
18.3000	0.030
18.4000	0.019
18.5000	0.014
18.6000	0.004
18.7000	-0.007
18.8000	-0.013
18.9000	-0.018
19.0000	-0.029
19.1000	-0.034
19.2000	-0.042
19.3000	-0.048
19.4000	-0.059
19.5000	-0.066
19.6000	-0.073
19.7000	-0.079
19.8000	-0.087
19.9000	-0.093
20.0000	-0.102
20.1000	-0.106
20.2000	-0.113
20.3000	-0.117
20.4000	-0.126
20.5000	-0.130
20.6000	-0.134
20.7000	-0.139
20.8000	-0.148
20.9000	-0.146
21.0000	-0.155
21.1000	-0.156
21.2000	-0.161
21.3000	-0.165
21.4000	-0.168
21.5000	-0.170
21.6000	-0.173
21.7000	-0.170
21.8000	-0.175
21.9000	-0.177
22.0000	-0.174
22.1000	-0.177
22.2000	-0.174
22.3000	-0.176
22.4000	-0.174
22.5000	-0.172
22.6000	-0.166
22.7000	-0.167
22.8000	-0.165
22.9000	-0.158
23.0000	-0.154
23.1000	-0.147
23.2000	-0.145
23.3000	-0.140
23.4000	-0.136
23.5000	-0.131
23.6000	-0.126
23.7000	-0.121
23.8000	-0.116
23.9000	-0.111
24.0000	-0.103
24.1000	-0.099
24.2000	-0.092
24.3000	-0.089
24.4000	-0.084
24.5000	-0.075
24.6000	-0.072
24.7000	-0.069
24.8000	-0.062
24.9000	-0.058
25.0000	-0.053
25.1000	-0.047
25.2000	-0.043
25.3000	-0.041
25.4000	-0.035
25.5000	-0.033
25.6000	-0.027
25.7000	-0.023
25.8000	-0.020
25.9000	-0.019
26.0000	-0.010
26.1000	-0.009
26.2000	-0.006
26.3000	-0.004
26.4000	8.545E-4
26.5000	0.005
26.6000	0.007
26.7000	0.010
26.8000	0.015
26.9000	0.018
27.0000	0.021
27.1000	0.023
27.2000	0.029
27.3000	0.032
27.4000	0.037
27.5000	0.039
27.6000	0.041
27.7000	0.042
27.8000	0.052
27.9000	0.051
28.0000	0.053
28.1000	0.061
28.2000	0.065
28.3000	0.067
28.4000	0.072
28.5000	0.075
28.6000	0.079
28.7000	0.081
28.8000	0.087
28.9000	0.089
29.0000	0.090
29.1000	0.096
29.2000	0.100
29.3000	0.105
29.4000	0.106
29.5000	0.111
29.6000	0.115
29.7000	0.113
29.8000	0.117
29.9000	0.117
30.0000	0.124
30.1000	0.121
30.2000	0.125
30.3000	0.126
30.4000	0.126
30.5000	0.126
30.6000	0.129
30.7000	0.124
30.8000	0.122
30.9000	0.124
31.0000	0.124
31.1000	0.120
31.2000	0.123
31.3000	0.119
31.4000	0.117
31.5000	0.115
31.6000	0.111
31.7000	0.111
31.8000	0.104
31.9000	0.102
32.0000	0.099
32.1000	0.092
32.2000	0.093
32.3000	0.088
32.4000	0.086
32.5000	0.070
32.6000	0.075
32.7000	0.074
32.8000	0.064
32.9000	0.057
33.0000	0.059
33.1000	0.050
33.2000	0.046
33.3000	0.040
33.4000	0.037
33.5000	0.024
33.6000	0.025
33.7000	0.021
33.8000	0.012
33.9000	0.008
34.0000	0.007
34.1000	-0.002
34.2000	-0.006
34.3000	-0.012
34.4000	-0.009
34.5000	-0.025
34.6000	-0.022
34.7000	-0.030
34.8000	-0.034
34.9000	-0.037
35.0000	-0.045
35.1000	-0.046
35.2000	-0.051
35.3000	-0.054
35.4000	-0.059
35.5000	-0.063
35.6000	-0.068
35.7000	-0.067
35.8000	-0.072
35.9000	-0.077
36.0000	-0.074
36.1000	-0.079
36.2000	-0.085
36.3000	-0.086
36.4000	-0.086
36.5000	-0.086
36.6000	-0.093
36.7000	-0.092
36.8000	-0.091
36.9000	-0.094
37.0000	-0.094
37.1000	-0.095
37.2000	-0.097
37.3000	-0.093
37.4000	-0.095
37.5000	-0.095
37.6000	-0.096
37.7000	-0.097
37.8000	-0.091
37.9000	-0.091
38.0000	-0.092
38.1000	-0.087
38.2000	-0.086
38.3000	-0.087
38.4000	-0.082
38.5000	-0.080
38.6000	-0.085
38.7000	-0.077
38.8000	-0.076
38.9000	-0.072
39.0000	-0.069
39.1000	-0.068
39.2000	-0.066
39.3000	-0.063
39.4000	-0.059
39.5000	-0.054
39.6000	-0.055
39.7000	-0.052
39.8000	-0.047
39.9000	-0.043
40.0000	-0.040
40.1000	-0.038
40.2000	-0.034
40.3000	-0.033
40.4000	-0.029
40.5000	-0.026
40.6000	-0.022
40.7000	-0.019
40.8000	-0.018
40.9000	-0.013
41.0000	-0.011
41.1000	-0.006
41.2000	-0.003
41.3000	-0.002
41.4000	-3.662E-4
41.5000	0.005
41.6000	0.008
41.7000	0.009
41.8000	0.013
41.9000	0.016
42.0000	0.019
42.1000	0.023
42.2000	0.023
42.3000	0.026
42.4000	0.031
42.5000	0.032
42.6000	0.037
42.7000	0.040
42.8000	0.038
42.9000	0.041
43.0000	0.043
43.1000	0.049
43.2000	0.051
43.3000	0.054
43.4000	0.056
43.5000	0.056
43.6000	0.059
43.7000	0.061
43.8000	0.061
43.9000	0.065
44.0000	0.067
44.1000	0.067
44.2000	0.064
44.3000	0.071
44.4000	0.073
44.5000	0.072
44.6000	0.070
44.7000	0.075
44.8000	0.074
44.9000	0.073
45.0000	0.075
45.1000	0.076
45.2000	0.073
45.3000	0.072
45.4000	0.076
45.5000	0.074
45.6000	0.070
45.7000	0.074
45.8000	0.072
45.9000	0.069
46.0000	0.068
46.1000	0.070
46.2000	0.065
46.3000	0.065
46.4000	0.064
46.5000	0.062
46.6000	0.055
46.7000	0.055
46.8000	0.054
46.9000	0.055
47.0000	0.049
47.1000	0.047
47.2000	0.040
47.3000	0.040
47.4000	0.041
47.5000	0.036
47.6000	0.027
47.7000	0.025
47.8000	0.027
47.9000	0.022
48.0000	0.025
48.1000	0.019
48.2000	0.012
48.3000	0.008
48.4000	0.009
48.5000	0.004
48.6000	-0.002
48.7000	-0.002
48.8000	-0.002
48.9000	-0.004
49.0000	-0.006
49.1000	-0.017
49.2000	-0.017
49.3000	-0.026
49.4000	-0.020
49.5000	-0.028
49.6000	-0.029
49.7000	-0.035
49.8000	-0.030
49.9000	-0.034
50.0000	-0.039
50.1000	-0.039
50.2000	-0.040
50.3000	-0.044
50.4000	-0.052
50.5000	-0.048
50.6000	-0.052
50.7000	-0.052
50.8000	-0.052
50.9000	-0.050
51.0000	-0.057
51.1000	-0.053
51.2000	-0.060
51.3000	-0.057
51.4000	-0.058
51.5000	-0.058
51.6000	-0.062
51.7000	-0.058
51.8000	-0.059
51.9000	-0.061
52.0000	-0.060
52.1000	-0.059
52.2000	-0.060
52.3000	-0.056
52.4000	-0.058
52.5000	-0.055
52.6000	-0.057
52.7000	-0.050
52.8000	-0.055
52.9000	-0.052
53.0000	-0.051
53.1000	-0.048
53.2000	-0.051
53.3000	-0.047
53.4000	-0.043
53.5000	-0.045
53.6000	-0.043
53.7000	-0.040
53.8000	-0.039
53.9000	-0.036
54.0000	-0.034
54.1000	-0.034
54.2000	-0.032
54.3000	-0.028
54.4000	-0.024
54.5000	-0.025
54.6000	-0.026
54.7000	-0.021
54.8000	-0.019
54.9000	-0.015
55.0000	-0.014
55.1000	-0.014
55.2000	-0.011
55.3000	-0.010
55.4000	-0.004
55.5000	-0.002
55.6000	-0.003
55.7000	8.545E-4
55.8000	0.005
55.9000	0.005
56.0000	0.008
56.1000	0.008
56.2000	0.010
56.3000	0.013
56.4000	0.019
56.5000	0.015
56.6000	0.016
56.7000	0.023
56.8000	0.026
56.9000	0.025
57.0000	0.023
57.1000	0.026
57.2000	0.031
57.3000	0.033
57.4000	0.033
57.5000	0.033
57.6000	0.038
57.7000	0.040
57.8000	0.042
57.9000	0.038
58.0000	0.041
58.1000	0.045
58.2000	0.046
58.3000	0.043
58.4000	0.046
58.5000	0.048
58.6000	0.046
58.7000	0.049
58.8000	0.050
58.9000	0.047
59.0000	0.047
59.1000	0.047
59.2000	0.052
59.3000	0.047
59.4000	0.046
59.5000	0.049
59.6000	0.049
59.7000	0.046
59.8000	0.048
59.9000	0.048
60.0000	0.044
60.1000	0.048
60.2000	0.046
60.3000	0.040
60.4000	0.041
60.5000	0.043
60.6000	0.043
60.7000	0.039
60.8000	0.037
60.9000	0.038
61.0000	0.035
61.1000	0.037
61.2000	0.033
61.3000	0.029
61.4000	0.028
61.5000	0.029
61.6000	0.029
61.7000	0.021
61.8000	0.020
61.9000	0.021
62.0000	0.021
62.1000	0.016
62.2000	0.015
62.3000	0.008
62.4000	0.007
62.5000	0.007
62.6000	0.005
62.7000	0.001
62.8000	-2.441E-4
62.9000	-0.001
63.0000	-0.003
63.1000	-0.007
63.2000	-0.008
63.3000	-0.009
63.4000	-0.012
63.5000	-0.012
63.6000	-0.013
63.7000	-0.017
63.8000	-0.020
63.9000	-0.018
64.0000	-0.021
64.1000	-0.024
64.2000	-0.025
64.3000	-0.025
64.4000	-0.026
64.5000	-0.027
64.6000	-0.029
64.7000	-0.031
64.8000	-0.033
64.9000	-0.032
65.0000	-0.035
65.1000	-0.035
65.2000	-0.035
65.3000	-0.035
65.4000	-0.037
65.5000	-0.039
65.6000	-0.039
65.7000	-0.037
65.8000	-0.039
65.9000	-0.038
66.0000	-0.037
66.1000	-0.039
66.2000	-0.039
66.3000	-0.036
66.4000	-0.038
66.5000	-0.039
66.6000	-0.038
66.7000	-0.037
66.8000	-0.033
66.9000	-0.036
67.0000	-0.037
67.1000	-0.035
67.2000	-0.033
67.3000	-0.032
67.4000	-0.032
67.5000	-0.034
67.6000	-0.028
67.7000	-0.026
67.8000	-0.026
67.9000	-0.026
68.0000	-0.025
68.1000	-0.023
68.2000	-0.020
68.3000	-0.020
68.4000	-0.019
68.5000	-0.022
68.6000	-0.017
68.7000	-0.016
68.8000	-0.010
68.9000	-0.012
69.0000	-0.011
69.1000	-0.006
69.2000	-0.007
69.3000	-0.004
69.4000	-0.005
69.5000	-7.324E-4
69.6000	1.221E-4
69.7000	0.001
69.8000	0.004
69.9000	0.004
70.0000	0.006
70.1000	0.006
70.2000	0.011
70.3000	0.013
70.4000	0.009
70.5000	0.013
70.6000	0.016
70.7000	0.018
70.8000	0.018
70.9000	0.021
71.0000	0.019
71.1000	0.020
71.2000	0.025
71.3000	0.024
71.4000	0.024
71.5000	0.028
71.6000	0.032
71.7000	0.025
71.8000	0.030
71.9000	0.031
72.0000	0.030
72.1000	0.031
72.2000	0.034
72.3000	0.034
72.4000	0.028
72.5000	0.033
72.6000	0.036
72.7000	0.031
72.8000	0.030
72.9000	0.035
73.0000	0.035
73.1000	0.033
73.2000	0.035
73.3000	0.037
73.4000	0.035
73.5000	0.032
73.6000	0.037
73.7000	0.034
73.8000	0.032
73.9000	0.033
74.0000	0.034
74.1000	0.030
74.2000	0.031
74.3000	0.032
74.4000	0.029
74.5000	0.029
74.6000	0.029
74.7000	0.023
74.8000	0.023
74.9000	0.025
75.0000	0.025
75.1000	0.022
75.2000	0.021
75.3000	0.019
75.4000	0.017
75.5000	0.018
75.6000	0.018
75.7000	0.011
75.8000	0.012
75.9000	0.012
76.0000	0.011
76.1000	0.011
76.2000	0.003
76.3000	0.007
76.4000	0.007
76.5000	0.003
76.6000	0.002
76.7000	0.002
76.8000	-0.001
76.9000	-0.006
77.0000	-0.003
77.1000	-0.005
77.2000	-0.010
77.3000	-0.010
77.4000	-0.006
77.5000	-0.012
77.6000	-0.016
77.7000	-0.015
77.8000	-0.011
77.9000	-0.018
78.0000	-0.017
78.1000	-0.018
78.2000	-0.016
78.3000	-0.022
78.4000	-0.018
78.5000	-0.022
78.6000	-0.024
78.7000	-0.024
78.8000	-0.020
78.9000	-0.028
79.0000	-0.026
79.1000	-0.026
79.2000	-0.027
79.3000	-0.028
79.4000	-0.026
79.5000	-0.029
79.6000	-0.028
79.7000	-0.029
79.8000	-0.022
79.9000	-0.029
80.0000	-0.026
80.1000	-0.028
80.2000	-0.026
80.3000	-0.029
80.4000	-0.017
80.5000	-0.026
80.6000	-0.028
80.7000	-0.024
80.8000	-0.022
80.9000	-0.022
81.0000	-0.025
81.1000	-0.023
81.2000	-0.021
81.3000	-0.022
81.4000	-0.021
81.5000	-0.021
81.6000	-0.020
81.7000	-0.016
81.8000	-0.015
81.9000	-0.017
82.0000	-0.014
82.1000	-0.014
82.2000	-0.011
82.3000	-0.008
82.4000	-0.012
82.5000	-0.009
82.6000	-0.007
82.7000	-0.006
82.8000	-0.004
82.9000	-0.003
83.0000	-0.003
83.1000	-0.002
83.2000	-1.831E-4
83.3000	-1.831E-4
83.4000	6.104E-4
83.5000	0.004
83.6000	0.004
83.7000	0.006
83.8000	0.008
83.9000	0.005
84.0000	0.009
84.1000	0.007
84.2000	0.010
84.3000	0.012
84.4000	0.013
84.5000	0.014
84.6000	0.014
84.7000	0.017
84.8000	0.016
84.9000	0.015
85.0000	0.018
85.1000	0.021
85.2000	0.019
85.3000	0.021
85.4000	0.020
85.5000	0.022
85.6000	0.023
85.7000	0.026
85.8000	0.021
85.9000	0.023
86.0000	0.024
86.1000	0.025
86.2000	0.023
86.3000	0.026
86.4000	0.023
86.5000	0.028
86.6000	0.028
86.7000	0.028
86.8000	0.023
86.9000	0.026
87.0000	0.025
87.1000	0.026
87.2000	0.023
87.3000	0.025
87.4000	0.026
87.5000	0.021
87.6000	0.022
87.7000	0.023
87.8000	0.022
87.9000	0.022
88.0000	0.021
88.1000	0.020
88.2000	0.015
88.3000	0.020
88.4000	0.022
88.5000	0.015
88.6000	0.016
88.7000	0.012
88.8000	0.013
88.9000	0.013
89.0000	0.013
89.1000	0.012
89.2000	0.011
89.3000	0.008
89.4000	0.011
89.5000	0.011
89.6000	0.007
89.7000	0.004
89.8000	0.004
89.9000	0.006
90.0000	8.545E-4
90.1000	4.883E-4
90.2000	3.052E-4
90.3000	-0.002
90.4000	-0.001
90.5000	0.000
90.6000	-0.004
90.7000	-0.006
90.8000	-0.005
90.9000	-0.005
91.0000	-0.009
91.1000	-0.007
91.2000	-0.009
91.3000	-0.012
91.4000	-0.010
91.5000	-0.010
91.6000	-0.012
91.7000	-0.013
91.8000	-0.014
91.9000	-0.012
92.0000	-0.013
92.1000	-0.015
92.2000	-0.015
92.3000	-0.017
92.4000	-0.014
92.5000	-0.014
92.6000	-0.016
92.7000	-0.018
92.8000	-0.014
92.9000	-0.017
93.0000	-0.017
93.1000	-0.015
93.2000	-0.013
93.3000	-0.019
93.4000	-0.016
93.5000	-0.016
93.6000	-0.017
93.7000	-0.017
93.8000	-0.015
93.9000	-0.016
94.0000	-0.016
94.1000	-0.016
94.2000	-0.013
94.3000	-0.017
94.4000	-0.012
94.5000	-0.014
94.6000	-0.014
94.7000	-0.013
94.8000	-0.010
94.9000	-0.010
95.0000	-0.013
95.1000	-0.009
95.2000	-0.008
95.3000	-0.010
95.4000	-0.008
95.5000	-0.006
95.6000	-0.006
95.7000	-0.005
95.8000	-0.006
95.9000	-0.003
96.0000	-0.004
96.1000	-0.002
96.2000	6.104E-5
96.3000	4.883E-4
96.4000	-3.662E-4
96.5000	0.003
96.6000	0.002
96.7000	-3.052E-4
96.8000	0.003
96.9000	0.005
97.0000	0.004
97.1000	0.007
97.2000	0.008
97.3000	0.007
97.4000	0.006
97.5000	0.008
97.6000	0.010
97.7000	0.010
97.8000	0.010
97.9000	0.011
98.0000	0.013
98.1000	0.013
98.2000	0.014
98.3000	0.015
98.4000	0.013
98.5000	0.012
98.6000	0.018
98.7000	0.017
98.8000	0.018
98.9000	0.013
99.0000	0.023
99.1000	0.024
99.2000	0.018
99.3000	0.028
99.4000	0.021
99.5000	0.020
99.6000	0.025
99.7000	0.021
99.8000	0.021
99.9000	0.020
100.0000	0.022
100.1000	0.023
100.2000	0.018
100.3000	0.020
100.4000	0.019
100.5000	0.017
100.6000	0.019
100.7000	0.018
100.8000	0.018
100.9000	0.017
101.0000	0.015
101.1000	0.013
101.2000	0.015
101.3000	0.013
101.4000	0.013
101.5000	0.011
101.6000	0.011
101.7000	0.012
101.8000	0.010
101.9000	0.008
102.0000	0.006
102.1000	0.007
102.2000	0.004
102.3000	0.003
102.4000	0.003
102.5000	0.001
102.6000	3.052E-4
102.7000	-6.104E-5
102.8000	-0.003
102.9000	-0.007
103.0000	-0.005
103.1000	-0.005
103.2000	-0.005
103.3000	-0.010
103.4000	-0.009
103.5000	-0.011
103.6000	-0.012
103.7000	-0.013
103.8000	-0.013
103.9000	-0.014
104.0000	-0.013
104.1000	-0.016
104.2000	-0.017
104.3000	-0.019
104.4000	-0.014
104.5000	-0.019
104.6000	-0.020
104.7000	-0.020
104.8000	-0.018
104.9000	-0.022
105.0000	-0.020
105.1000	-0.022
105.2000	-0.020
105.3000	-0.023
105.4000	-0.021
105.5000	-0.023
105.6000	-0.020
105.7000	-0.024
105.8000	-0.020
105.9000	-0.021
106.0000	-0.021
106.1000	-0.023
106.2000	-0.020
106.3000	-0.018
106.4000	-0.021
106.5000	-0.018
106.6000	-0.019
106.7000	-0.020
106.8000	-0.019
106.9000	-0.016
107.0000	-0.016
107.1000	-0.017
107.2000	-0.014
107.3000	-0.015
107.4000	-0.016
107.5000	-0.014
107.6000	-0.010
107.7000	-0.011
107.8000	-0.011
107.9000	-0.008
108.0000	-0.007
108.1000	-0.009
108.2000	-0.006
108.3000	-0.003
108.4000	-0.003
108.5000	-0.005
108.6000	-0.002
108.7000	0.002
108.8000	0.002
108.9000	-0.003
109.0000	-8.545E-4
109.1000	0.005
109.2000	0.006
109.3000	0.004
109.4000	0.004
109.5000	0.004
109.6000	0.003
109.7000	0.006
109.8000	0.007
109.9000	0.010
110.0000	0.008
110.1000	0.007
110.2000	0.008
110.3000	0.011
110.4000	0.013
110.5000	0.009
110.6000	0.013
110.7000	0.011
110.8000	0.011
110.9000	0.011
111.0000	0.017
111.1000	0.015
111.2000	0.016
111.3000	0.015
111.4000	0.016
111.5000	0.012
111.6000	0.014
111.7000	0.021
111.8000	0.013
111.9000	0.010
112.0000	0.020
112.1000	0.017
112.2000	0.013
112.3000	0.016
112.4000	0.019
112.5000	0.019
112.6000	0.015
112.7000	0.020
112.8000	0.016
112.9000	0.014
113.0000	0.013
113.1000	0.018
113.2000	0.013
113.3000	0.016
113.4000	0.016
113.5000	0.013
113.6000	0.014
113.7000	0.017
113.8000	0.014
113.9000	0.013
114.0000	0.013
114.1000	0.013
114.2000	0.011
114.3000	0.010
114.4000	0.011
114.5000	0.010
114.6000	0.005
114.7000	0.006
114.8000	0.012
114.9000	0.010
115.0000	0.007
115.1000	0.002
115.2000	0.002
115.3000	0.003
115.4000	0.005
115.5000	0.003
115.6000	0.005
115.7000	0.004
115.8000	-0.007
115.9000	-0.005
116.0000	-8.545E-4
116.1000	-0.001
116.2000	-0.001
116.3000	0.001
116.4000	-4.883E-4
116.5000	-0.004
116.6000	-0.006
116.7000	-0.006
116.8000	-0.007
116.9000	-0.007
117.0000	-0.006
117.1000	-0.006
117.2000	-0.007
117.3000	-0.011
117.4000	-0.005
117.5000	-0.008
117.6000	-0.010
117.7000	-0.008
117.8000	-0.006
117.9000	-0.009
