Voltage, ChA, Run #6
Time ( s )	Voltage ( V )
0.0000	0.191
0.1000	0.196
0.2000	0.200
0.3000	0.210
0.4000	0.214
0.5000	0.215
0.6000	0.202
0.7000	0.211
0.8000	0.216
0.9000	0.211
1.0000	0.203
1.1000	0.203
1.2000	0.202
1.3000	0.203
1.4000	0.196
1.5000	0.189
1.6000	0.179
1.7000	0.182
1.8000	0.169
1.9000	0.174
2.0000	0.153
2.1000	0.144
2.2000	0.145
2.3000	0.134
2.4000	0.128
2.5000	0.119
2.6000	0.108
2.7000	0.100
2.8000	0.096
2.9000	0.089
3.0000	0.075
3.1000	0.067
3.2000	0.061
3.3000	0.057
3.4000	0.044
3.5000	0.035
3.6000	0.028
3.7000	0.022
3.8000	0.015
3.9000	0.009
4.0000	-0.006
4.1000	-0.012
4.2000	-0.013
4.3000	-0.023
4.4000	-0.034
4.5000	-0.044
4.6000	-0.049
4.7000	-0.054
4.8000	-0.064
4.9000	-0.072
5.0000	-0.084
5.1000	-0.089
5.2000	-0.093
5.3000	-0.100
5.4000	-0.116
5.5000	-0.121
5.6000	-0.124
5.7000	-0.131
5.8000	-0.143
5.9000	-0.150
6.0000	-0.157
6.1000	-0.159
6.2000	-0.166
6.3000	-0.173
6.4000	-0.184
6.5000	-0.188
6.6000	-0.188
6.7000	-0.192
6.8000	-0.202
6.9000	-0.204
7.0000	-0.207
7.1000	-0.204
7.2000	-0.211
7.3000	-0.212
7.4000	-0.214
7.5000	-0.217
7.6000	-0.210
7.7000	-0.209
7.8000	-0.214
7.9000	-0.212
8.0000	-0.206
8.1000	-0.206
8.2000	-0.202
8.3000	-0.199
8.4000	-0.197
8.5000	-0.192
8.6000	-0.186
8.7000	-0.177
8.8000	-0.173
8.9000	-0.172
9.0000	-0.159
9.1000	-0.154
9.2000	-0.150
9.3000	-0.145
9.4000	-0.135
9.5000	-0.129
9.6000	-0.123
9.7000	-0.115
9.8000	-0.109
9.9000	-0.102
10.0000	-0.094
10.1000	-0.089
10.2000	-0.086
10.3000	-0.077
10.4000	-0.071
10.5000	-0.065
10.6000	-0.059
10.7000	-0.055
10.8000	-0.048
10.9000	-0.044
11.0000	-0.039
11.1000	-0.032
11.2000	-0.028
11.3000	-0.025
11.4000	-0.018
11.5000	-0.015
11.6000	-0.009
11.7000	-0.008
11.8000	-0.002
11.9000	0.003
12.0000	0.005
12.1000	0.010
12.2000	0.014
12.3000	0.018
12.4000	0.023
12.5000	0.027
12.6000	0.029
12.7000	0.034
12.8000	0.041
12.9000	0.044
13.0000	0.050
13.1000	0.054
13.2000	0.059
13.3000	0.065
13.4000	0.070
13.5000	0.074
13.6000	0.080
13.7000	0.086
13.8000	0.090
13.9000	0.096
14.0000	0.101
14.1000	0.105
14.2000	0.110
14.3000	0.116
14.4000	0.122
14.5000	0.124
14.6000	0.130
14.7000	0.132
14.8000	0.138
14.9000	0.144
15.0000	0.143
15.1000	0.147
15.2000	0.152
15.3000	0.155
15.4000	0.157
15.5000	0.155
15.6000	0.160
15.7000	0.163
15.8000	0.163
15.9000	0.164
16.0000	0.163
16.1000	0.163
16.2000	0.162
16.3000	0.165
16.4000	0.160
16.5000	0.159
16.6000	0.156
16.7000	0.156
16.8000	0.151
16.9000	0.146
17.0000	0.144
17.1000	0.139
17.2000	0.136
17.3000	0.135
17.4000	0.128
17.5000	0.121
17.6000	0.119
17.7000	0.116
17.8000	0.111
17.9000	0.107
18.0000	0.099
18.1000	0.093
18.2000	0.092
18.3000	0.082
18.4000	0.075
18.5000	0.070
18.6000	0.064
18.7000	0.059
18.8000	0.054
18.9000	0.047
19.0000	0.042
19.1000	0.035
19.2000	0.029
19.3000	0.024
19.4000	0.016
19.5000	0.011
19.6000	0.003
19.7000	-0.003
19.8000	-0.010
19.9000	-0.013
20.0000	-0.017
20.1000	-0.025
20.2000	-0.030
20.3000	-0.034
20.4000	-0.038
20.5000	-0.048
20.6000	-0.054
20.7000	-0.057
20.8000	-0.063
20.9000	-0.070
21.0000	-0.074
21.1000	-0.081
21.2000	-0.084
21.3000	-0.088
21.4000	-0.094
21.5000	-0.098
21.6000	-0.102
21.7000	-0.102
21.8000	-0.108
21.9000	-0.115
22.0000	-0.113
22.1000	-0.118
22.2000	-0.120
22.3000	-0.125
22.4000	-0.120
22.5000	-0.129
22.6000	-0.128
22.7000	-0.127
22.8000	-0.129
22.9000	-0.135
23.0000	-0.132
23.1000	-0.131
23.2000	-0.131
23.3000	-0.130
23.4000	-0.129
23.5000	-0.130
23.6000	-0.129
23.7000	-0.127
23.8000	-0.124
23.9000	-0.124
24.0000	-0.122
24.1000	-0.119
24.2000	-0.116
24.3000	-0.117
24.4000	-0.107
24.5000	-0.106
24.6000	-0.105
24.7000	-0.103
24.8000	-0.097
24.9000	-0.095
25.0000	-0.092
25.1000	-0.083
25.2000	-0.083
25.3000	-0.080
25.4000	-0.074
25.5000	-0.070
25.6000	-0.070
25.7000	-0.063
25.8000	-0.057
25.9000	-0.056
26.0000	-0.051
26.1000	-0.047
26.2000	-0.043
26.3000	-0.042
26.4000	-0.036
26.5000	-0.031
26.6000	-0.029
26.7000	-0.023
26.8000	-0.018
26.9000	-0.018
27.0000	-0.013
27.1000	-0.009
27.2000	-0.008
27.3000	-0.001
27.4000	0.002
27.5000	0.008
27.6000	0.010
27.7000	0.012
27.8000	0.018
27.9000	0.022
28.0000	0.024
28.1000	0.027
28.2000	0.034
28.3000	0.033
28.4000	0.038
28.5000	0.041
28.6000	0.046
28.7000	0.050
28.8000	0.051
28.9000	0.056
29.0000	0.059
29.1000	0.060
29.2000	0.066
29.3000	0.071
29.4000	0.070
29.5000	0.078
29.6000	0.077
29.7000	0.081
29.8000	0.084
29.9000	0.085
30.0000	0.088
30.1000	0.088
30.2000	0.095
30.3000	0.097
30.4000	0.093
30.5000	0.098
30.6000	0.098
30.7000	0.100
30.8000	0.101
30.9000	0.101
31.0000	0.103
31.1000	0.100
31.2000	0.103
31.3000	0.105
31.4000	0.101
31.5000	0.100
31.6000	0.103
31.7000	0.099
31.8000	0.098
31.9000	0.096
32.0000	0.096
32.1000	0.093
32.2000	0.092
32.3000	0.091
32.4000	0.090
32.5000	0.084
32.6000	0.084
32.7000	0.084
32.8000	0.077
32.9000	0.076
33.0000	0.075
33.1000	0.070
33.2000	0.065
33.3000	0.062
33.4000	0.060
33.5000	0.055
33.6000	0.054
33.7000	0.048
33.8000	0.047
33.9000	0.038
34.0000	0.038
34.1000	0.035
34.2000	0.031
34.3000	0.025
34.4000	0.020
34.5000	0.020
34.6000	0.016
34.7000	0.012
34.8000	0.005
34.9000	0.003
35.0000	-0.005
35.1000	-0.009
35.2000	-0.009
35.3000	-0.014
35.4000	-0.017
35.5000	-0.018
35.6000	-0.024
35.7000	-0.030
35.8000	-0.035
35.9000	-0.033
36.0000	-0.042
36.1000	-0.044
36.2000	-0.047
36.3000	-0.050
36.4000	-0.054
36.5000	-0.054
36.6000	-0.057
36.7000	-0.065
36.8000	-0.064
36.9000	-0.067
37.0000	-0.069
37.1000	-0.069
37.2000	-0.069
37.3000	-0.073
37.4000	-0.074
37.5000	-0.073
37.6000	-0.077
37.7000	-0.082
37.8000	-0.080
37.9000	-0.077
38.0000	-0.082
38.1000	-0.076
38.2000	-0.078
38.3000	-0.080
38.4000	-0.086
38.5000	-0.077
38.6000	-0.076
38.7000	-0.079
38.8000	-0.077
38.9000	-0.075
39.0000	-0.077
39.1000	-0.075
39.2000	-0.073
39.3000	-0.070
39.4000	-0.068
39.5000	-0.067
39.6000	-0.067
39.7000	-0.067
39.8000	-0.060
39.9000	-0.057
40.0000	-0.058
40.1000	-0.056
40.2000	-0.053
40.3000	-0.048
40.4000	-0.047
40.5000	-0.045
40.6000	-0.039
40.7000	-0.040
40.8000	-0.035
40.9000	-0.031
41.0000	-0.034
41.1000	-0.026
41.2000	-0.027
41.3000	-0.022
41.4000	-0.021
41.5000	-0.020
41.6000	-0.013
41.7000	-0.012
41.8000	-0.010
41.9000	-0.003
42.0000	0.000
42.1000	7.324E-4
42.2000	0.002
42.3000	0.005
42.4000	0.012
42.5000	0.011
42.6000	0.016
42.7000	0.019
42.8000	0.020
42.9000	0.022
43.0000	0.027
43.1000	0.032
43.2000	0.029
43.3000	0.034
43.4000	0.040
43.5000	0.039
43.6000	0.045
43.7000	0.045
43.8000	0.048
43.9000	0.048
44.0000	0.052
44.1000	0.054
44.2000	0.056
44.3000	0.055
44.4000	0.058
44.5000	0.063
44.6000	0.064
44.7000	0.062
44.8000	0.065
44.9000	0.065
45.0000	0.070
45.1000	0.067
45.2000	0.066
45.3000	0.072
45.4000	0.073
45.5000	0.069
45.6000	0.072
45.7000	0.072
45.8000	0.074
45.9000	0.071
46.0000	0.071
46.1000	0.072
46.2000	0.070
46.3000	0.070
46.4000	0.070
46.5000	0.066
46.6000	0.069
46.7000	0.064
46.8000	0.064
46.9000	0.062
47.0000	0.064
47.1000	0.060
47.2000	0.059
47.3000	0.057
47.4000	0.052
47.5000	0.052
47.6000	0.047
47.7000	0.049
47.8000	0.040
47.9000	0.044
48.0000	0.042
48.1000	0.033
48.2000	0.034
48.3000	0.033
48.4000	0.027
48.5000	0.027
48.6000	0.024
48.7000	0.022
48.8000	0.014
48.9000	0.016
49.0000	0.009
49.1000	0.009
49.2000	0.003
49.3000	0.006
49.4000	8.545E-4
49.5000	-0.004
49.6000	-0.005
49.7000	-0.008
49.8000	-0.012
49.9000	-0.014
50.0000	-0.015
50.1000	-0.019
50.2000	-0.022
50.3000	-0.026
50.4000	-0.025
50.5000	-0.030
50.6000	-0.032
50.7000	-0.032
50.8000	-0.038
50.9000	-0.039
51.0000	-0.041
51.1000	-0.040
51.2000	-0.045
51.3000	-0.047
51.4000	-0.044
51.5000	-0.051
51.6000	-0.054
51.7000	-0.053
51.8000	-0.051
51.9000	-0.054
52.0000	-0.055
52.1000	-0.057
52.2000	-0.056
52.3000	-0.055
52.4000	-0.055
52.5000	-0.054
52.6000	-0.061
52.7000	-0.055
52.8000	-0.057
52.9000	-0.060
53.0000	-0.058
53.1000	-0.055
53.2000	-0.059
53.3000	-0.054
53.4000	-0.054
53.5000	-0.053
53.6000	-0.056
53.7000	-0.051
53.8000	-0.052
53.9000	-0.049
54.0000	-0.049
54.1000	-0.044
54.2000	-0.050
54.3000	-0.044
54.4000	-0.036
54.5000	-0.036
54.6000	-0.037
54.7000	-0.035
54.8000	-0.038
54.9000	-0.033
55.0000	-0.036
55.1000	-0.027
55.2000	-0.028
55.3000	-0.021
55.4000	-0.021
55.5000	-0.019
55.6000	-0.020
55.7000	-0.014
55.8000	-0.013
55.9000	-0.012
56.0000	-0.011
56.1000	-0.006
56.2000	-0.005
56.3000	-0.003
56.4000	-9.766E-4
56.5000	-2.441E-4
56.6000	0.002
56.7000	0.004
56.8000	0.007
56.9000	0.007
57.0000	0.012
57.1000	0.013
57.2000	0.017
57.3000	0.019
57.4000	0.025
57.5000	0.021
57.6000	0.020
57.7000	0.024
57.8000	0.026
57.9000	0.027
58.0000	0.028
58.1000	0.036
58.2000	0.033
58.3000	0.036
58.4000	0.034
58.5000	0.037
58.6000	0.038
58.7000	0.044
58.8000	0.043
58.9000	0.044
59.0000	0.044
59.1000	0.046
59.2000	0.047
59.3000	0.046
59.4000	0.050
59.5000	0.049
59.6000	0.045
59.7000	0.053
59.8000	0.050
59.9000	0.051
60.0000	0.053
60.1000	0.051
60.2000	0.046
60.3000	0.053
60.4000	0.055
60.5000	0.050
60.6000	0.049
60.7000	0.049
60.8000	0.051
60.9000	0.048
61.0000	0.048
61.1000	0.048
61.2000	0.046
61.3000	0.046
61.4000	0.050
61.5000	0.037
61.6000	0.043
61.7000	0.037
61.8000	0.040
61.9000	0.037
62.0000	0.031
62.1000	0.035
62.2000	0.029
62.3000	0.029
62.4000	0.029
62.5000	0.023
62.6000	0.025
62.7000	0.026
62.8000	0.026
62.9000	0.016
63.0000	0.017
63.1000	0.016
63.2000	0.012
63.3000	0.009
63.4000	0.010
63.5000	0.005
63.6000	0.003
63.7000	0.004
63.8000	0.003
63.9000	-0.003
64.0000	-0.004
64.1000	-0.010
64.2000	-0.006
64.3000	-0.012
64.4000	-0.013
64.5000	-0.018
64.6000	-0.014
64.7000	-0.019
64.8000	-0.019
64.9000	-0.024
65.0000	-0.024
65.1000	-0.024
65.2000	-0.021
65.3000	-0.028
65.4000	-0.030
65.5000	-0.031
65.6000	-0.031
65.7000	-0.034
65.8000	-0.034
65.9000	-0.036
66.0000	-0.037
66.1000	-0.038
66.2000	-0.037
66.3000	-0.039
66.4000	-0.040
66.5000	-0.038
66.6000	-0.041
66.7000	-0.044
66.8000	-0.039
66.9000	-0.041
67.0000	-0.042
67.1000	-0.045
67.2000	-0.039
67.3000	-0.040
67.4000	-0.042
67.5000	-0.042
67.6000	-0.038
67.7000	-0.036
67.8000	-0.038
67.9000	-0.039
68.0000	-0.036
68.1000	-0.037
68.2000	-0.035
68.3000	-0.035
68.4000	-0.029
68.5000	-0.031
68.6000	-0.030
68.7000	-0.030
68.8000	-0.032
68.9000	-0.030
69.0000	-0.025
69.1000	-0.025
69.2000	-0.023
69.3000	-0.021
69.4000	-0.020
69.5000	-0.019
69.6000	-0.017
69.7000	-0.017
69.8000	-0.013
69.9000	-0.013
70.0000	-0.010
70.1000	-0.011
70.2000	-0.006
70.3000	-0.006
70.4000	-0.005
70.5000	-0.004
70.6000	-0.001
70.7000	-8.545E-4
70.8000	0.004
70.9000	0.005
71.0000	0.002
71.1000	0.005
71.2000	0.010
71.3000	0.010
71.4000	0.013
71.5000	0.014
71.6000	0.013
71.7000	0.011
71.8000	0.020
71.9000	0.016
72.0000	0.021
72.1000	0.023
72.2000	0.026
72.3000	0.027
72.4000	0.027
72.5000	0.027
72.6000	0.031
72.7000	0.027
72.8000	0.032
72.9000	0.031
73.0000	0.031
73.1000	0.032
73.2000	0.034
73.3000	0.032
73.4000	0.038
73.5000	0.032
73.6000	0.037
73.7000	0.036
73.8000	0.036
73.9000	0.032
74.0000	0.037
74.1000	0.034
74.2000	0.039
74.3000	0.036
74.4000	0.036
74.5000	0.035
74.6000	0.037
74.7000	0.034
74.8000	0.032
74.9000	0.034
75.0000	0.037
75.1000	0.032
75.2000	0.031
75.3000	0.032
75.4000	0.033
75.5000	0.030
75.6000	0.028
75.7000	0.027
75.8000	0.029
75.9000	0.026
76.0000	0.028
76.1000	0.027
76.2000	0.026
76.3000	0.019
76.4000	0.022
76.5000	0.019
76.6000	0.020
76.7000	0.015
76.8000	0.015
76.9000	0.016
77.0000	0.012
77.1000	0.010
77.2000	0.010
77.3000	0.005
77.4000	0.003
77.5000	0.006
77.6000	0.006
77.7000	-0.001
77.8000	3.052E-4
77.9000	1.831E-4
78.0000	-0.005
78.1000	-0.005
78.2000	-0.004
78.3000	-0.007
78.4000	-0.010
78.5000	-0.011
78.6000	-0.011
78.7000	-0.011
78.8000	-0.014
78.9000	-0.016
79.0000	-0.016
79.1000	-0.017
79.2000	-0.017
79.3000	-0.019
79.4000	-0.019
79.5000	-0.024
79.6000	-0.021
79.7000	-0.023
79.8000	-0.026
79.9000	-0.026
80.0000	-0.023
80.1000	-0.026
80.2000	-0.026
80.3000	-0.029
80.4000	-0.027
80.5000	-0.029
80.6000	-0.024
80.7000	-0.028
80.8000	-0.029
80.9000	-0.028
81.0000	-0.025
81.1000	-0.030
81.2000	-0.028
81.3000	-0.028
81.4000	-0.028
81.5000	-0.028
81.6000	-0.025
81.7000	-0.026
81.8000	-0.027
81.9000	-0.026
82.0000	-0.023
82.1000	-0.023
82.2000	-0.024
82.3000	-0.025
82.4000	-0.021
82.5000	-0.019
82.6000	-0.018
82.7000	-0.019
82.8000	-0.019
82.9000	-0.016
83.0000	-0.016
83.1000	-0.017
83.2000	-0.015
83.3000	-0.012
83.4000	-0.011
83.5000	-0.009
83.6000	-0.007
83.7000	-0.009
83.8000	-0.007
83.9000	-0.006
84.0000	-0.002
84.1000	-0.006
84.2000	-0.002
84.3000	4.273E-4
84.4000	0.001
84.5000	0.003
84.6000	0.003
84.7000	0.005
84.8000	0.006
84.9000	0.008
85.0000	0.007
85.1000	0.009
85.2000	0.010
85.3000	0.012
85.4000	0.011
85.5000	0.014
85.6000	0.013
85.7000	0.017
85.8000	0.016
85.9000	0.018
86.0000	0.016
86.1000	0.021
86.2000	0.019
86.3000	0.023
86.4000	0.022
86.5000	0.022
86.6000	0.021
86.7000	0.024
86.8000	0.022
86.9000	0.024
87.0000	0.025
87.1000	0.028
87.2000	0.024
87.3000	0.025
87.4000	0.025
87.5000	0.030
87.6000	0.026
87.7000	0.027
87.8000	0.026
87.9000	0.027
88.0000	0.029
88.1000	0.027
88.2000	0.027
88.3000	0.024
88.4000	0.024
88.5000	0.028
88.6000	0.024
88.7000	0.024
88.8000	0.024
88.9000	0.023
89.0000	0.022
89.1000	0.027
89.2000	0.021
89.3000	0.019
89.4000	0.018
89.5000	0.021
89.6000	0.019
89.7000	0.019
89.8000	0.020
89.9000	0.015
90.0000	0.017
90.1000	0.015
90.2000	0.011
90.3000	0.013
90.4000	0.010
90.5000	0.009
90.6000	0.005
90.7000	0.013
90.8000	0.006
90.9000	0.005
91.0000	0.002
91.1000	0.006
91.2000	0.002
91.3000	6.104E-5
91.4000	9.156E-4
91.5000	-0.004
91.6000	-0.003
91.7000	-0.006
91.8000	-0.005
91.9000	-0.009
92.0000	-0.007
92.1000	-0.007
92.2000	-0.009
92.3000	-0.010
92.4000	-0.010
92.5000	-0.014
92.6000	-0.009
92.7000	-0.014
92.8000	-0.016
92.9000	-0.018
93.0000	-0.014
93.1000	-0.018
93.2000	-0.016
93.3000	-0.018
93.4000	-0.017
93.5000	-0.019
93.6000	-0.019
93.7000	-0.020
93.8000	-0.020
93.9000	-0.019
94.0000	-0.021
94.1000	-0.018
94.2000	-0.025
94.3000	-0.024
94.4000	-0.023
94.5000	-0.023
94.6000	-0.020
94.7000	-0.018
94.8000	-0.021
94.9000	-0.022
95.0000	-0.024
95.1000	-0.021
95.2000	-0.020
95.3000	-0.018
95.4000	-0.020
95.5000	-0.016
95.6000	-0.018
95.7000	-0.018
95.8000	-0.014
95.9000	-0.017
96.0000	-0.016
96.1000	-0.013
96.2000	-0.014
96.3000	-0.013
96.4000	-0.012
96.5000	-0.012
96.6000	-0.011
96.7000	-0.007
96.8000	-0.007
96.9000	-0.009
97.0000	-0.004
97.1000	-0.006
97.2000	-0.008
97.3000	-0.004
97.4000	-0.003
97.5000	-0.001
97.6000	7.935E-4
97.7000	-0.003
97.8000	-0.001
97.9000	0.001
98.0000	0.001
98.1000	0.004
98.2000	0.004
98.3000	0.008
98.4000	0.005
98.5000	0.001
98.6000	0.009
98.7000	0.010
98.8000	0.006
98.9000	0.008
99.0000	0.014
99.1000	0.015
99.2000	0.015
99.3000	0.012
99.4000	0.017
99.5000	0.014
99.6000	0.015
