Voltage, ChA, Run #1
Time ( s )	Voltage ( V )
0.0000	-0.055
0.1000	-0.028
0.2000	-0.027
0.3000	-0.026
0.4000	-0.011
0.5000	-0.001
0.6000	1.831E-4
0.7000	0.017
0.8000	0.035
0.9000	0.022
1.0000	0.047
1.1000	0.059
1.2000	0.060
1.3000	0.052
1.4000	0.057
1.5000	0.085
1.6000	0.128
1.7000	0.160
1.8000	0.147
1.9000	0.177
2.0000	0.230
2.1000	0.290
2.2000	0.272
2.3000	0.482
2.4000	0.470
2.5000	0.570
2.6000	0.544
2.7000	0.510
2.8000	0.579
2.9000	0.529
3.0000	0.519
3.1000	0.484
3.2000	0.451
3.3000	0.414
3.4000	0.343
3.5000	0.301
3.6000	0.241
3.7000	0.181
3.8000	0.132
3.9000	0.082
4.0000	0.042
4.1000	0.035
4.2000	-0.041
4.3000	-0.029
4.4000	-0.039
4.5000	-0.077
4.6000	-0.008
4.7000	-0.136
4.8000	-0.154
4.9000	-0.224
5.0000	-0.125
5.1000	-0.190
5.2000	-0.224
5.3000	-0.472
5.4000	-0.380
5.5000	-0.342
5.6000	-0.320
5.7000	-0.558
5.8000	-0.543
5.9000	-0.601
6.0000	-0.343
6.1000	-0.406
6.2000	-0.526
6.3000	-0.618
6.4000	-0.433
6.5000	-0.313
6.6000	-0.338
6.7000	-0.447
6.8000	-0.461
6.9000	-0.283
7.0000	-0.171
7.1000	-0.219
7.2000	-0.333
7.3000	-0.228
7.4000	-0.121
7.5000	-0.030
7.6000	-0.123
7.7000	-0.133
7.8000	-0.157
7.9000	0.058
8.0000	0.064
8.1000	0.004
8.2000	-0.038
8.3000	0.106
8.4000	0.179
8.5000	0.148
8.6000	0.126
8.7000	0.176
8.8000	0.260
8.9000	0.347
9.0000	0.253
9.1000	0.282
9.2000	0.316
9.3000	0.428
9.4000	0.425
9.5000	0.401
9.6000	0.381
9.7000	0.411
9.8000	0.422
9.9000	0.473
10.0000	0.311
10.1000	0.344
10.2000	0.365
10.3000	0.429
10.4000	0.305
10.5000	0.236
10.6000	0.283
10.7000	0.299
10.8000	0.295
10.9000	0.219
11.0000	0.178
11.1000	0.196
11.2000	0.183
11.3000	0.167
11.4000	0.098
11.5000	0.096
11.6000	0.103
11.7000	0.085
11.8000	0.058
11.9000	0.034
12.0000	0.036
12.1000	0.036
12.2000	0.022
12.3000	-0.007
12.4000	-0.011
12.5000	-0.010
12.6000	-0.015
12.7000	-0.036
12.8000	-0.060
12.9000	-0.069
13.0000	-0.062
13.1000	-0.082
13.2000	-0.114
13.3000	-0.138
13.4000	-0.136
13.5000	-0.150
13.6000	-0.180
13.7000	-0.226
13.8000	-0.236
13.9000	-0.236
14.0000	-0.256
14.1000	-0.305
14.2000	-0.338
14.3000	-0.333
14.4000	-0.332
14.5000	-0.363
14.6000	-0.406
14.7000	-0.408
14.8000	-0.387
14.9000	-0.392
15.0000	-0.423
15.1000	-0.437
15.2000	-0.410
15.3000	-0.384
15.4000	-0.392
15.5000	-0.405
15.6000	-0.389
15.7000	-0.350
15.8000	-0.326
15.9000	-0.327
16.0000	-0.322
16.1000	-0.282
16.2000	-0.248
16.3000	-0.232
16.4000	-0.230
16.5000	-0.206
16.6000	-0.168
16.7000	-0.145
16.8000	-0.139
16.9000	-0.126
17.0000	-0.103
17.1000	-0.074
17.2000	-0.062
17.3000	-0.059
17.4000	-0.044
17.5000	-0.022
17.6000	-0.003
17.7000	0.004
17.8000	0.008
17.9000	0.030
18.0000	0.051
18.1000	0.062
18.2000	0.068
18.3000	0.084
18.4000	0.107
18.5000	0.128
18.6000	0.138
18.7000	0.149
18.8000	0.173
18.9000	0.206
19.0000	0.224
19.1000	0.227
19.2000	0.246
19.3000	0.276
19.4000	0.299
19.5000	0.306
19.6000	0.314
19.7000	0.334
19.8000	0.359
19.9000	0.366
20.0000	0.363
20.1000	0.364
20.2000	0.380
20.3000	0.388
20.4000	0.379
20.5000	0.364
20.6000	0.366
20.7000	0.371
20.8000	0.353
20.9000	0.338
21.0000	0.319
21.1000	0.315
21.2000	0.301
21.3000	0.279
21.4000	0.254
21.5000	0.238
21.6000	0.226
21.7000	0.210
21.8000	0.181
21.9000	0.161
22.0000	0.149
22.1000	0.136
22.2000	0.115
22.3000	0.097
22.4000	0.080
22.5000	0.074
22.6000	0.060
22.7000	0.042
22.8000	0.025
22.9000	0.021
23.0000	0.010
23.1000	-0.006
23.2000	-0.022
23.3000	-0.033
23.4000	-0.040
23.5000	-0.052
23.6000	-0.069
23.7000	-0.086
23.8000	-0.096
23.9000	-0.112
24.0000	-0.130
24.1000	-0.148
24.2000	-0.162
24.3000	-0.176
24.4000	-0.192
24.5000	-0.211
24.6000	-0.232
24.7000	-0.245
24.8000	-0.254
24.9000	-0.276
25.0000	-0.292
25.1000	-0.303
25.2000	-0.308
25.3000	-0.315
25.4000	-0.331
25.5000	-0.338
25.6000	-0.334
25.7000	-0.336
25.8000	-0.337
25.9000	-0.339
26.0000	-0.337
26.1000	-0.320
26.2000	-0.312
26.3000	-0.311
26.4000	-0.302
26.5000	-0.283
26.6000	-0.272
26.7000	-0.254
26.8000	-0.247
26.9000	-0.228
27.0000	-0.208
27.1000	-0.191
27.2000	-0.178
27.3000	-0.162
27.4000	-0.143
27.5000	-0.124
27.6000	-0.112
27.7000	-0.098
27.8000	-0.084
27.9000	-0.062
28.0000	-0.049
28.1000	-0.038
28.2000	-0.025
28.3000	-0.006
28.4000	0.010
28.5000	0.022
28.6000	0.034
28.7000	0.048
28.8000	0.067
28.9000	0.079
29.0000	0.091
29.1000	0.105
29.2000	0.125
29.3000	0.139
29.4000	0.157
29.5000	0.164
29.6000	0.182
29.7000	0.203
29.8000	0.214
29.9000	0.226
30.0000	0.240
30.1000	0.252
30.2000	0.267
30.3000	0.275
30.4000	0.284
30.5000	0.295
30.6000	0.298
30.7000	0.308
30.8000	0.309
30.9000	0.306
31.0000	0.309
31.1000	0.313
31.2000	0.305
31.3000	0.297
31.4000	0.300
31.5000	0.294
31.6000	0.279
31.7000	0.270
31.8000	0.255
31.9000	0.246
32.0000	0.229
32.1000	0.219
32.2000	0.203
32.3000	0.190
32.4000	0.175
32.5000	0.163
32.6000	0.142
32.7000	0.132
32.8000	0.122
32.9000	0.105
33.0000	0.088
33.1000	0.073
33.2000	0.060
33.3000	0.045
33.4000	0.031
33.5000	0.020
33.6000	0.008
33.7000	-2.441E-4
33.8000	-0.014
33.9000	-0.025
34.0000	-0.044
34.1000	-0.054
34.2000	-0.068
34.3000	-0.079
34.4000	-0.089
34.5000	-0.106
34.6000	-0.116
34.7000	-0.130
34.8000	-0.146
34.9000	-0.155
35.0000	-0.171
35.1000	-0.186
35.2000	-0.194
35.3000	-0.212
35.4000	-0.216
35.5000	-0.224
35.6000	-0.234
35.7000	-0.242
35.8000	-0.246
35.9000	-0.260
36.0000	-0.257
36.1000	-0.262
36.2000	-0.267
36.3000	-0.267
36.4000	-0.266
36.5000	-0.259
36.6000	-0.263
36.7000	-0.258
36.8000	-0.247
36.9000	-0.240
37.0000	-0.237
37.1000	-0.228
37.2000	-0.215
37.3000	-0.206
37.4000	-0.194
37.5000	-0.186
37.6000	-0.172
37.7000	-0.161
37.8000	-0.144
37.9000	-0.131
38.0000	-0.124
38.1000	-0.107
38.2000	-0.092
38.3000	-0.083
38.4000	-0.070
38.5000	-0.050
38.6000	-0.040
38.7000	-0.027
38.8000	-0.012
38.9000	-1.221E-4
39.0000	0.010
39.1000	0.028
39.2000	0.039
39.3000	0.052
39.4000	0.063
39.5000	0.076
39.6000	0.090
39.7000	0.101
39.8000	0.114
39.9000	0.128
40.0000	0.140
40.1000	0.153
40.2000	0.161
40.3000	0.172
40.4000	0.184
40.5000	0.190
40.6000	0.201
40.7000	0.208
40.8000	0.217
40.9000	0.226
41.0000	0.230
41.1000	0.233
41.2000	0.237
41.3000	0.238
41.4000	0.242
41.5000	0.245
41.6000	0.239
41.7000	0.239
41.8000	0.238
41.9000	0.232
42.0000	0.227
42.1000	0.220
42.2000	0.215
42.3000	0.205
42.4000	0.201
42.5000	0.189
42.6000	0.180
42.7000	0.169
42.8000	0.161
42.9000	0.153
43.0000	0.142
43.1000	0.129
43.2000	0.120
43.3000	0.100
43.4000	0.090
43.5000	0.085
43.6000	0.069
43.7000	0.057
43.8000	0.047
43.9000	0.032
44.0000	0.024
44.1000	0.013
44.2000	-0.003
44.3000	-0.012
44.4000	-0.022
44.5000	-0.033
44.6000	-0.046
44.7000	-0.055
44.8000	-0.068
44.9000	-0.074
45.0000	-0.090
45.1000	-0.100
45.2000	-0.109
45.3000	-0.120
45.4000	-0.130
45.5000	-0.139
45.6000	-0.151
45.7000	-0.158
45.8000	-0.166
45.9000	-0.174
46.0000	-0.184
46.1000	-0.190
46.2000	-0.195
46.3000	-0.200
46.4000	-0.204
46.5000	-0.205
46.6000	-0.213
46.7000	-0.210
46.8000	-0.208
46.9000	-0.212
47.0000	-0.210
47.1000	-0.214
47.2000	-0.209
47.3000	-0.201
47.4000	-0.208
47.5000	-0.196
47.6000	-0.190
47.7000	-0.192
47.8000	-0.174
47.9000	-0.167
48.0000	-0.163
48.1000	-0.148
48.2000	-0.145
48.3000	-0.131
48.4000	-0.119
48.5000	-0.112
48.6000	-0.096
48.7000	-0.084
48.8000	-0.079
48.9000	-0.063
49.0000	-0.050
49.1000	-0.044
49.2000	-0.027
49.3000	-0.018
49.4000	-0.005
49.5000	0.006
49.6000	0.018
49.7000	0.028
49.8000	0.040
49.9000	0.051
50.0000	0.063
50.1000	0.076
50.2000	0.083
50.3000	0.097
50.4000	0.107
50.5000	0.113
50.6000	0.127
50.7000	0.133
50.8000	0.144
50.9000	0.151
51.0000	0.157
51.1000	0.167
51.2000	0.171
51.3000	0.182
51.4000	0.185
51.5000	0.187
51.6000	0.194
51.7000	0.198
51.8000	0.198
51.9000	0.200
52.0000	0.199
52.1000	0.199
52.2000	0.198
52.3000	0.197
52.4000	0.193
52.5000	0.190
52.6000	0.184
52.7000	0.182
52.8000	0.174
52.9000	0.167
53.0000	0.159
53.1000	0.154
53.2000	0.145
53.3000	0.138
53.4000	0.129
53.5000	0.120
53.6000	0.111
53.7000	0.101
53.8000	0.091
53.9000	0.083
54.0000	0.072
54.1000	0.063
54.2000	0.052
54.3000	0.043
54.4000	0.034
54.5000	0.024
54.6000	0.012
54.7000	0.005
54.8000	-0.003
54.9000	-0.017
55.0000	-0.024
55.1000	-0.033
55.2000	-0.046
55.3000	-0.054
55.4000	-0.064
55.5000	-0.072
55.6000	-0.082
55.7000	-0.090
55.8000	-0.099
55.9000	-0.109
56.0000	-0.115
56.1000	-0.125
56.2000	-0.129
56.3000	-0.136
56.4000	-0.143
56.5000	-0.150
56.6000	-0.154
56.7000	-0.161
56.8000	-0.164
56.9000	-0.167
57.0000	-0.170
57.1000	-0.172
57.2000	-0.173
57.3000	-0.173
57.4000	-0.172
57.5000	-0.174
57.6000	-0.170
57.7000	-0.166
57.8000	-0.167
57.9000	-0.160
58.0000	-0.156
58.1000	-0.151
58.2000	-0.143
58.3000	-0.139
58.4000	-0.134
58.5000	-0.124
58.6000	-0.121
58.7000	-0.110
58.8000	-0.102
58.9000	-0.096
59.0000	-0.085
59.1000	-0.076
59.2000	-0.071
59.3000	-0.058
59.4000	-0.050
59.5000	-0.041
59.6000	-0.029
59.7000	-0.022
59.8000	-0.010
59.9000	-0.002
60.0000	0.009
60.1000	0.019
60.2000	0.027
60.3000	0.033
60.4000	0.047
60.5000	0.055
60.6000	0.064
60.7000	0.072
60.8000	0.081
60.9000	0.090
61.0000	0.099
61.1000	0.104
61.2000	0.112
61.3000	0.118
61.4000	0.126
61.5000	0.132
61.6000	0.135
61.7000	0.141
61.8000	0.146
61.9000	0.149
62.0000	0.152
62.1000	0.155
62.2000	0.159
62.3000	0.159
62.4000	0.158
62.5000	0.158
62.6000	0.158
62.7000	0.158
62.8000	0.153
62.9000	0.151
63.0000	0.147
63.1000	0.146
63.2000	0.138
63.3000	0.137
63.4000	0.131
63.5000	0.126
63.6000	0.117
63.7000	0.114
63.8000	0.108
63.9000	0.098
64.0000	0.090
64.1000	0.088
64.2000	0.077
64.3000	0.068
64.4000	0.061
64.5000	0.052
64.6000	0.044
64.7000	0.035
64.8000	0.028
64.9000	0.018
65.0000	0.009
65.1000	0.005
65.2000	-0.006
65.3000	-0.015
65.4000	-0.020
65.5000	-0.031
65.6000	-0.039
65.7000	-0.047
65.8000	-0.053
65.9000	-0.061
66.0000	-0.070
66.1000	-0.075
66.2000	-0.082
66.3000	-0.092
66.4000	-0.096
66.5000	-0.103
66.6000	-0.106
66.7000	-0.114
66.8000	-0.120
66.9000	-0.124
67.0000	-0.125
67.1000	-0.128
67.2000	-0.132
67.3000	-0.134
67.4000	-0.136
67.5000	-0.137
67.6000	-0.137
67.7000	-0.138
67.8000	-0.136
67.9000	-0.138
68.0000	-0.134
68.1000	-0.133
68.2000	-0.130
68.3000	-0.125
68.4000	-0.122
68.5000	-0.122
68.6000	-0.115
68.7000	-0.109
68.8000	-0.109
68.9000	-0.100
69.0000	-0.095
69.1000	-0.081
69.2000	-0.078
69.3000	-0.077
69.4000	-0.061
69.5000	-0.058
69.6000	-0.052
69.7000	-0.039
69.8000	-0.037
69.9000	-0.027
70.0000	-0.020
70.1000	-0.014
70.2000	-0.008
70.3000	0.005
70.4000	0.009
70.5000	0.018
70.6000	0.025
70.7000	0.034
70.8000	0.043
70.9000	0.046
71.0000	0.055
71.1000	0.062
71.2000	0.067
71.3000	0.076
71.4000	0.084
71.5000	0.088
71.6000	0.101
71.7000	0.094
71.8000	0.103
71.9000	0.109
72.0000	0.115
72.1000	0.116
72.2000	0.119
72.3000	0.123
72.4000	0.123
72.5000	0.127
72.6000	0.122
72.7000	0.126
72.8000	0.129
72.9000	0.126
73.0000	0.124
73.1000	0.124
73.2000	0.122
73.3000	0.123
73.4000	0.116
73.5000	0.117
73.6000	0.112
73.7000	0.105
73.8000	0.104
73.9000	0.100
74.0000	0.092
74.1000	0.090
74.2000	0.085
74.3000	0.079
74.4000	0.073
74.5000	0.065
74.6000	0.059
74.7000	0.054
74.8000	0.045
74.9000	0.041
75.0000	0.032
75.1000	0.024
75.2000	0.019
75.3000	0.013
75.4000	0.003
75.5000	-6.104E-4
75.6000	-0.006
75.7000	-0.015
75.8000	-0.020
75.9000	-0.028
76.0000	-0.036
76.1000	-0.040
76.2000	-0.047
76.3000	-0.055
76.4000	-0.060
76.5000	-0.064
76.6000	-0.070
76.7000	-0.075
76.8000	-0.081
76.9000	-0.082
77.0000	-0.090
77.1000	-0.092
77.2000	-0.096
77.3000	-0.102
77.4000	-0.102
77.5000	-0.102
77.6000	-0.107
77.7000	-0.108
77.8000	-0.111
77.9000	-0.108
78.0000	-0.105
78.1000	-0.107
78.2000	-0.109
78.3000	-0.104
78.4000	-0.104
78.5000	-0.104
78.6000	-0.102
78.7000	-0.099
78.8000	-0.097
78.9000	-0.090
79.0000	-0.086
79.1000	-0.086
79.2000	-0.079
79.3000	-0.074
79.4000	-0.071
79.5000	-0.066
79.6000	-0.059
79.7000	-0.050
79.8000	-0.045
79.9000	-0.042
80.0000	-0.037
80.1000	-0.030
80.2000	-0.021
80.3000	-0.017
80.4000	-0.009
80.5000	-0.004
80.6000	0.003
80.7000	0.009
80.8000	0.013
80.9000	0.021
81.0000	0.028
81.1000	0.035
81.2000	0.042
81.3000	0.042
81.4000	0.050
81.5000	0.059
81.6000	0.065
81.7000	0.067
81.8000	0.073
81.9000	0.075
82.0000	0.082
82.1000	0.086
82.2000	0.085
82.3000	0.091
82.4000	0.097
82.5000	0.095
82.6000	0.099
82.7000	0.097
82.8000	0.101
82.9000	0.100
83.0000	0.102
83.1000	0.100
83.2000	0.101
83.3000	0.099
83.4000	0.099
83.5000	0.097
83.6000	0.095
83.7000	0.093
83.8000	0.089
83.9000	0.089
84.0000	0.082
84.1000	0.080
84.2000	0.078
84.3000	0.071
84.4000	0.070
84.5000	0.068
84.6000	0.062
84.7000	0.058
84.8000	0.052
84.9000	0.047
85.0000	0.043
85.1000	0.032
85.2000	0.029
85.3000	0.023
85.4000	0.012
85.5000	0.011
85.6000	0.007
85.7000	-0.003
85.8000	-0.006
85.9000	-0.009
86.0000	-0.016
86.1000	-0.021
86.2000	-0.027
86.3000	-0.032
86.4000	-0.037
86.5000	-0.044
86.6000	-0.048
86.7000	-0.050
86.8000	-0.056
86.9000	-0.060
87.0000	-0.063
87.1000	-0.067
87.2000	-0.073
87.3000	-0.072
87.4000	-0.076
87.5000	-0.081
87.6000	-0.080
87.7000	-0.082
87.8000	-0.088
87.9000	-0.085
88.0000	-0.087
88.1000	-0.089
88.2000	-0.091
88.3000	-0.088
88.4000	-0.089
88.5000	-0.088
88.6000	-0.089
88.7000	-0.084
88.8000	-0.083
88.9000	-0.082
89.0000	-0.079
89.1000	-0.073
89.2000	-0.070
89.3000	-0.064
89.4000	-0.065
89.5000	-0.063
89.6000	-0.055
89.7000	-0.051
89.8000	-0.047
89.9000	-0.044
90.0000	-0.038
90.1000	-0.031
90.2000	-0.027
90.3000	-0.023
90.4000	-0.013
90.5000	-0.012
90.6000	-0.005
90.7000	-9.766E-4
90.8000	0.002
90.9000	0.009
91.0000	0.014
91.1000	0.020
91.2000	0.024
91.3000	0.030
91.4000	0.035
91.5000	0.039
91.6000	0.044
91.7000	0.046
91.8000	0.053
91.9000	0.056
92.0000	0.059
92.1000	0.065
92.2000	0.067
92.3000	0.072
92.4000	0.075
92.5000	0.077
92.6000	0.078
92.7000	0.081
92.8000	0.081
92.9000	0.084
93.0000	0.083
93.1000	0.084
93.2000	0.085
93.3000	0.084
93.4000	0.083
93.5000	0.086
93.6000	0.081
93.7000	0.082
93.8000	0.078
93.9000	0.078
94.0000	0.074
94.1000	0.071
94.2000	0.071
94.3000	0.069
94.4000	0.065
94.5000	0.061
94.6000	0.057
94.7000	0.051
94.8000	0.048
94.9000	0.046
95.0000	0.041
95.1000	0.035
95.2000	0.033
95.3000	0.030
95.4000	0.023
95.5000	0.018
95.6000	0.013
95.7000	0.010
95.8000	0.005
95.9000	-0.003
96.0000	-0.007
96.1000	-0.008
96.2000	-0.016
96.3000	-0.018
96.4000	-0.024
96.5000	-0.028
96.6000	-0.034
96.7000	-0.037
96.8000	-0.041
96.9000	-0.046
97.0000	-0.050
97.1000	-0.052
97.2000	-0.058
97.3000	-0.058
97.4000	-0.060
97.5000	-0.064
97.6000	-0.067
97.7000	-0.068
97.8000	-0.070
97.9000	-0.071
98.0000	-0.075
98.1000	-0.071
98.2000	-0.076
98.3000	-0.076
98.4000	-0.072
98.5000	-0.071
98.6000	-0.076
98.7000	-0.070
98.8000	-0.071
98.9000	-0.070
99.0000	-0.070
99.1000	-0.063
99.2000	-0.064
99.3000	-0.060
99.4000	-0.055
99.5000	-0.054
99.6000	-0.052
99.7000	-0.048
99.8000	-0.042
99.9000	-0.042
100.0000	-0.035
100.1000	-0.030
100.2000	-0.029
100.3000	-0.025
100.4000	-0.021
100.5000	-0.015
100.6000	-0.010
100.7000	-0.006
100.8000	-1.831E-4
100.9000	4.273E-4
101.0000	0.005
101.1000	0.013
101.2000	0.017
101.3000	0.019
101.4000	0.026
101.5000	0.028
101.6000	0.030
101.7000	0.036
101.8000	0.040
101.9000	0.042
102.0000	0.047
102.1000	0.051
102.2000	0.053
102.3000	0.057
102.4000	0.061
102.5000	0.061
102.6000	0.065
102.7000	0.069
102.8000	0.067
102.9000	0.069
103.0000	0.068
103.1000	0.070
103.2000	0.071
103.3000	0.070
103.4000	0.067
103.5000	0.072
103.6000	0.067
103.7000	0.067
103.8000	0.064
103.9000	0.066
104.0000	0.066
104.1000	0.065
104.2000	0.063
104.3000	0.062
104.4000	0.058
104.5000	0.054
104.6000	0.054
104.7000	0.048
104.8000	0.040
104.9000	0.044
105.0000	0.037
105.1000	0.031
105.2000	0.030
105.3000	0.026
105.4000	0.021
105.5000	0.021
105.6000	0.015
105.7000	0.009
105.8000	0.008
105.9000	0.002
106.0000	-5.493E-4
106.1000	-0.004
106.2000	-0.009
106.3000	-0.010
106.4000	-0.015
106.5000	-0.021
106.6000	-0.024
106.7000	-0.030
106.8000	-0.030
106.9000	-0.036
107.0000	-0.037
107.1000	-0.046
107.2000	-0.042
107.3000	-0.045
107.4000	-0.044
107.5000	-0.052
107.6000	-0.051
107.7000	-0.056
107.8000	-0.056
107.9000	-0.058
108.0000	-0.059
108.1000	-0.062
108.2000	-0.057
108.3000	-0.060
108.4000	-0.063
108.5000	-0.060
108.6000	-0.060
108.7000	-0.059
108.8000	-0.060
108.9000	-0.057
109.0000	-0.056
109.1000	-0.055
109.2000	-0.055
109.3000	-0.052
109.4000	-0.049
109.5000	-0.049
109.6000	-0.044
109.7000	-0.042
109.8000	-0.042
109.9000	-0.037
110.0000	-0.035
110.1000	-0.031
110.2000	-0.028
110.3000	-0.026
110.4000	-0.019
110.5000	-0.014
110.6000	-0.012
110.7000	-0.007
110.8000	-0.003
110.9000	8.545E-4
111.0000	0.004
111.1000	0.007
111.2000	0.011
111.3000	0.014
111.4000	0.017
111.5000	0.021
111.6000	0.022
111.7000	0.028
111.8000	0.030
111.9000	0.036
112.0000	0.035
112.1000	0.039
112.2000	0.042
112.3000	0.047
112.4000	0.047
112.5000	0.052
112.6000	0.050
112.7000	0.055
112.8000	0.054
112.9000	0.056
113.0000	0.057
113.1000	0.059
113.2000	0.060
113.3000	0.061
113.4000	0.058
113.5000	0.059
113.6000	0.060
113.7000	0.058
113.8000	0.058
113.9000	0.058
114.0000	0.055
114.1000	0.054
114.2000	0.054
114.3000	0.049
114.4000	0.051
114.5000	0.049
114.6000	0.044
114.7000	0.042
114.8000	0.038
114.9000	0.038
115.0000	0.031
115.1000	0.033
115.2000	0.029
115.3000	0.025
115.4000	0.021
115.5000	0.018
115.6000	0.014
115.7000	0.012
115.8000	0.007
115.9000	0.005
116.0000	6.104E-5
116.1000	-0.002
116.2000	-0.004
116.3000	-0.008
116.4000	-0.015
116.5000	-0.016
116.6000	-0.020
116.7000	-0.020
116.8000	-0.028
116.9000	-0.029
117.0000	-0.030
117.1000	-0.031
117.2000	-0.036
117.3000	-0.038
117.4000	-0.042
117.5000	-0.043
117.6000	-0.041
117.7000	-0.047
117.8000	-0.048
117.9000	-0.049
118.0000	-0.051
118.1000	-0.051
118.2000	-0.052
118.3000	-0.052
118.4000	-0.050
118.5000	-0.052
118.6000	-0.051
118.7000	-0.049
118.8000	-0.053
118.9000	-0.050
119.0000	-0.046
119.1000	-0.049
119.2000	-0.047
119.3000	-0.042
119.4000	-0.044
119.5000	-0.043
119.6000	-0.036
119.7000	-0.036
119.8000	-0.036
119.9000	-0.028
120.0000	-0.030
120.1000	-0.024
120.2000	-0.019
120.3000	-0.019
120.4000	-0.014
120.5000	-0.015
120.6000	-0.007
120.7000	-0.004
120.8000	-0.004
120.9000	-9.156E-4
121.0000	0.006
121.1000	0.003
121.2000	0.007
121.3000	0.014
121.4000	0.014
121.5000	0.018
121.6000	0.023
121.7000	0.025
121.8000	0.026
121.9000	0.030
122.0000	0.033
122.1000	0.037
122.2000	0.034
122.3000	0.041
122.4000	0.044
122.5000	0.042
122.6000	0.045
122.7000	0.046
122.8000	0.048
122.9000	0.048
123.0000	0.049
123.1000	0.053
123.2000	0.050
123.3000	0.051
123.4000	0.055
123.5000	0.052
123.6000	0.052
123.7000	0.049
123.8000	0.050
123.9000	0.050
124.0000	0.049
124.1000	0.043
124.2000	0.046
124.3000	0.046
124.4000	0.042
124.5000	0.041
124.6000	0.038
124.7000	0.037
124.8000	0.036
124.9000	0.031
125.0000	0.028
125.1000	0.025
125.2000	0.024
125.3000	0.021
125.4000	0.020
125.5000	0.015
125.6000	0.013
125.7000	0.008
125.8000	0.006
125.9000	0.004
126.0000	-0.001
126.1000	-0.004
126.2000	-0.005
126.3000	-0.008
126.4000	-0.010
126.5000	-0.012
126.6000	-0.017
126.7000	-0.019
126.8000	-0.022
126.9000	-0.025
127.0000	-0.025
127.1000	-0.030
127.2000	-0.032
127.3000	-0.031
127.4000	-0.037
127.5000	-0.036
127.6000	-0.039
127.7000	-0.039
127.8000	-0.039
127.9000	-0.048
128.0000	-0.044
128.1000	-0.044
128.2000	-0.046
128.3000	-0.045
128.4000	-0.043
128.5000	-0.046
128.6000	-0.045
128.7000	-0.042
