Voltage, ChA (Editable), Run #1 (Edited)
Time ( s )	Voltage ( V )
416.2000	-0.095
416.3000	-0.097
416.4000	-0.093
416.5000	-0.088
416.6000	-0.078
416.7000	-0.073
416.8000	-0.074
416.9000	-0.068
417.0000	-0.060
417.1000	-0.054
417.2000	-0.052
417.3000	-0.049
417.4000	-0.039
417.5000	-0.030
417.6000	-0.025
417.7000	-0.027
417.8000	-0.016
417.9000	-0.005
418.0000	0.000
418.1000	-6.104E-4
418.2000	0.004
418.3000	0.019
418.4000	0.025
418.5000	0.027
418.6000	0.031
418.7000	0.042
418.8000	0.052
418.9000	0.049
419.0000	0.049
419.1000	0.059
419.2000	0.068
419.3000	0.070
419.4000	0.068
419.5000	0.067
419.6000	0.090
419.7000	0.092
419.8000	0.088
419.9000	0.083
420.0000	0.099
420.1000	0.099
420.2000	0.095
420.3000	0.088
420.4000	0.096
420.5000	0.103
420.6000	0.101
420.7000	0.093
420.8000	0.098
420.9000	0.098
421.0000	0.103
421.1000	0.092
421.2000	0.087
421.3000	0.083
421.4000	0.085
421.5000	0.078
421.6000	0.069
421.7000	0.063
421.8000	0.065
421.9000	0.059
422.0000	0.049
422.1000	0.049
422.2000	0.046
422.3000	0.039
422.4000	0.030
422.5000	0.024
422.6000	0.019
422.7000	0.015
422.8000	0.007
422.9000	-0.007
423.0000	-0.009
423.1000	-0.013
423.2000	-0.029
423.3000	-0.038
423.4000	-0.035
423.5000	-0.038
423.6000	-0.041
423.7000	-0.054
423.8000	-0.058
423.9000	-0.063
424.0000	-0.071
424.1000	-0.070
424.2000	-0.078
424.3000	-0.079
424.4000	-0.081
424.5000	-0.087
424.6000	-0.084
424.7000	-0.093
424.8000	-0.095
424.9000	-0.103
425.0000	-0.103
425.1000	-0.107
425.2000	-0.107
425.3000	-0.107
425.4000	-0.106
425.5000	-0.095
425.6000	-0.103
425.7000	-0.096
425.8000	-0.092
425.9000	-0.090
426.0000	-0.088
426.1000	-0.089
426.2000	-0.081
426.3000	-0.076
426.4000	-0.074
426.5000	-0.068
426.6000	-0.062
426.7000	-0.056
426.8000	-0.052
426.9000	-0.045
427.0000	-0.046
427.1000	-0.039
427.2000	-0.039
427.3000	-0.032
427.4000	-0.029
427.5000	-0.024
427.6000	-0.015
427.7000	-0.011
427.8000	-0.007
427.9000	0.006
428.0000	0.007
428.1000	0.013
428.2000	0.021
428.3000	0.029
428.4000	0.031
428.5000	0.034
428.6000	0.041
428.7000	0.053
428.8000	0.058
428.9000	0.058
429.0000	0.059
429.1000	0.068
429.2000	0.070
429.3000	0.068
429.4000	0.068
429.5000	0.074
429.6000	0.084
429.7000	0.078
429.8000	0.084
429.9000	0.084
430.0000	0.101
430.1000	0.088
430.2000	0.092
430.3000	0.085
430.4000	0.098
430.5000	0.087
430.6000	0.085
430.7000	0.075
430.8000	0.083
430.9000	0.082
431.0000	0.078
431.1000	0.068
431.2000	0.069
431.3000	0.079
431.4000	0.064
431.5000	0.051
431.6000	0.051
431.7000	0.056
431.8000	0.051
431.9000	0.027
432.0000	0.025
432.1000	0.022
432.2000	0.026
432.3000	0.012
432.4000	0.008
432.5000	0.003
432.6000	0.009
432.7000	0.000
432.8000	-0.020
432.9000	-0.026
433.0000	-0.020
433.1000	-0.016
433.2000	-0.036
433.3000	-0.043
433.4000	-0.035
433.5000	-0.034
433.6000	-0.049
433.7000	-0.067
433.8000	-0.065
433.9000	-0.069
434.0000	-0.073
434.1000	-0.089
434.2000	-0.089
434.3000	-0.074
434.4000	-0.078
434.5000	-0.086
434.6000	-0.088
434.7000	-0.085
434.8000	-0.087
434.9000	-0.095
435.0000	-0.102
435.1000	-0.102
435.2000	-0.090
435.3000	-0.094
435.4000	-0.098
435.5000	-0.092
435.6000	-0.082
435.7000	-0.074
435.8000	-0.088
435.9000	-0.077
436.0000	-0.070
436.1000	-0.068
436.2000	-0.078
436.3000	-0.072
436.4000	-0.068
436.5000	-0.058
436.6000	-0.054
436.7000	-0.049
436.8000	-0.039
436.9000	-0.030
437.0000	-0.031
437.1000	-0.035
437.2000	-0.029
437.3000	-0.015
437.4000	-0.019
437.5000	-0.010
437.6000	-0.004
437.7000	0.016
437.8000	0.010
437.9000	0.020
438.0000	0.021
438.1000	0.029
438.2000	0.024
438.3000	0.029
438.4000	0.025
438.5000	0.040
438.6000	0.040
438.7000	0.049
438.8000	0.045
438.9000	0.065
439.0000	0.062
439.1000	0.068
439.2000	0.061
439.3000	0.074
439.4000	0.069
439.5000	0.078
439.6000	0.068
439.7000	0.079
439.8000	0.076
439.9000	0.084
440.0000	0.079
440.1000	0.084
440.2000	0.082
440.3000	0.085
440.4000	0.080
440.5000	0.078
440.6000	0.078
440.7000	0.083
440.8000	0.067
440.9000	0.063
441.0000	0.060
441.1000	0.068
441.2000	0.053
441.3000	0.055
441.4000	0.042
441.5000	0.052
441.6000	0.035
441.7000	0.033
441.8000	0.023
441.9000	0.024
442.0000	0.015
442.1000	0.010
442.2000	0.002
442.3000	0.004
442.4000	0.004
442.5000	0.000
442.6000	-0.014
442.7000	-0.019
442.8000	-0.023
442.9000	-0.024
443.0000	-0.038
443.1000	-0.042
443.2000	-0.047
443.3000	-0.041
443.4000	-0.049
443.5000	-0.052
443.6000	-0.058
443.7000	-0.065
443.8000	-0.067
443.9000	-0.074
444.0000	-0.076
444.1000	-0.082
444.2000	-0.077
444.3000	-0.078
444.4000	-0.078
444.5000	-0.081
444.6000	-0.083
444.7000	-0.081
444.8000	-0.089
444.9000	-0.088
445.0000	-0.088
445.1000	-0.087
445.2000	-0.078
445.3000	-0.078
445.4000	-0.078
445.5000	-0.076
445.6000	-0.068
445.7000	-0.064
445.8000	-0.068
445.9000	-0.069
446.0000	-0.067
446.1000	-0.054
446.2000	-0.058
446.3000	-0.059
446.4000	-0.054
446.5000	-0.047
446.6000	-0.035
446.7000	-0.036
446.8000	-0.033
446.9000	-0.025
447.0000	-0.014
447.1000	-0.016
447.2000	-0.015
447.3000	-0.010
447.4000	-6.104E-4
447.5000	0.000
447.6000	0.004
447.7000	0.010
447.8000	0.020
447.9000	0.021
448.0000	0.029
448.1000	0.028
448.2000	0.034
448.3000	0.034
448.4000	0.037
448.5000	0.037
448.6000	0.047
448.7000	0.046
448.8000	0.049
448.9000	0.056
449.0000	0.063
449.1000	0.065
449.2000	0.064
449.3000	0.062
449.4000	0.068
449.5000	0.068
449.6000	0.063
449.7000	0.063
449.8000	0.063
449.9000	0.066
450.0000	0.072
450.1000	0.071
450.2000	0.069
450.3000	0.064
450.4000	0.069
450.5000	0.061
450.6000	0.060
450.7000	0.049
450.8000	0.054
450.9000	0.054
451.0000	0.039
451.1000	0.038
451.2000	0.040
451.3000	0.045
451.4000	0.035
451.5000	0.030
451.6000	0.029
451.7000	0.029
451.8000	0.020
451.9000	0.010
452.0000	0.011
452.1000	0.007
452.2000	0.002
452.3000	-0.012
452.4000	-0.016
452.5000	-0.012
452.6000	-0.018
452.7000	-0.023
452.8000	-0.029
452.9000	-0.028
453.0000	-0.031
453.1000	-0.038
453.2000	-0.040
453.3000	-0.042
453.4000	-0.039
453.5000	-0.049
453.6000	-0.054
453.7000	-0.059
453.8000	-0.059
453.9000	-0.067
454.0000	-0.073
454.1000	-0.074
454.2000	-0.073
454.3000	-0.072
454.4000	-0.067
454.5000	-0.068
454.6000	-0.061
454.7000	-0.061
454.8000	-0.060
454.9000	-0.065
455.0000	-0.065
455.1000	-0.067
455.2000	-0.066
455.3000	-0.065
455.4000	-0.063
455.5000	-0.059
455.6000	-0.059
455.7000	-0.054
455.8000	-0.058
455.9000	-0.051
456.0000	-0.056
456.1000	-0.052
456.2000	-0.051
456.3000	-0.048
456.4000	-0.040
456.5000	-0.039
456.6000	-0.029
456.7000	-0.024
456.8000	-0.020
456.9000	-0.011
457.0000	-0.010
457.1000	-0.005
457.2000	-0.010
457.3000	-0.002
457.4000	0.003
457.5000	0.010
457.6000	0.012
457.7000	0.014
457.8000	0.020
457.9000	0.020
458.0000	0.024
458.1000	0.027
458.2000	0.031
458.3000	0.033
458.4000	0.037
458.5000	0.042
458.6000	0.042
458.7000	0.046
458.8000	0.049
458.9000	0.054
459.0000	0.049
459.1000	0.054
459.2000	0.052
459.3000	0.052
459.4000	0.054
459.5000	0.052
459.6000	0.056
459.7000	0.052
459.8000	0.056
459.9000	0.058
460.0000	0.057
460.1000	0.058
460.2000	0.058
460.3000	0.059
460.4000	0.052
460.5000	0.051
460.6000	0.044
460.7000	0.046
460.8000	0.043
460.9000	0.043
461.0000	0.040
461.1000	0.040
461.2000	0.037
461.3000	0.031
461.4000	0.026
461.5000	0.021
461.6000	0.016
461.7000	0.010
461.8000	0.003
461.9000	0.000
462.0000	-0.001
462.1000	-0.006
462.2000	-0.007
462.3000	-0.010
462.4000	-0.009
462.5000	-0.014
462.6000	-0.019
462.7000	-0.029
462.8000	-0.032
462.9000	-0.034
463.0000	-0.044
463.1000	-0.049
463.2000	-0.048
463.3000	-0.045
463.4000	-0.049
463.5000	-0.052
463.6000	-0.054
463.7000	-0.054
463.8000	-0.053
463.9000	-0.054
464.0000	-0.057
464.1000	-0.061
464.2000	-0.056
464.3000	-0.057
464.4000	-0.063
464.5000	-0.062
464.6000	-0.059
464.7000	-0.063
464.8000	-0.064
464.9000	-0.063
465.0000	-0.059
465.1000	-0.059
465.2000	-0.058
465.3000	-0.057
465.4000	-0.052
465.5000	-0.049
465.6000	-0.049
465.7000	-0.049
465.8000	-0.040
465.9000	-0.034
466.0000	-0.029
466.1000	-0.034
466.2000	-0.031
466.3000	-0.025
466.4000	-0.028
466.5000	-0.027
466.6000	-0.022
466.7000	-0.013
466.8000	-0.010
466.9000	-0.007
467.0000	-6.104E-4
467.1000	-6.104E-4
467.2000	0.005
467.3000	0.005
467.4000	0.010
467.5000	0.011
467.6000	0.020
467.7000	0.023
467.8000	0.024
467.9000	0.029
468.0000	0.029
468.1000	0.029
468.2000	0.030
468.3000	0.029
468.4000	0.032
468.5000	0.031
468.6000	0.041
468.7000	0.046
468.8000	0.052
468.9000	0.049
469.0000	0.054
469.1000	0.054
469.2000	0.048
469.3000	0.047
469.4000	0.045
469.5000	0.044
469.6000	0.044
469.7000	0.044
469.8000	0.043
469.9000	0.043
470.0000	0.049
470.1000	0.049
470.2000	0.044
470.3000	0.038
470.4000	0.039
470.5000	0.036
470.6000	0.033
470.7000	0.028
470.8000	0.029
470.9000	0.033
471.0000	0.029
471.1000	0.028
471.2000	0.019
471.3000	0.020
471.4000	0.009
471.5000	0.009
471.6000	-0.005
471.7000	-0.001
471.8000	-0.011
471.9000	-0.010
472.0000	-0.009
472.1000	-0.010
472.2000	-0.009
472.3000	-0.010
472.4000	-0.017
472.5000	-0.021
472.6000	-0.027
472.7000	-0.033
472.8000	-0.040
472.9000	-0.048
473.0000	-0.048
473.1000	-0.049
473.2000	-0.049
473.3000	-0.048
473.4000	-0.049
473.5000	-0.048
473.6000	-0.047
473.7000	-0.051
473.8000	-0.059
473.9000	-0.059
474.0000	-0.056
474.1000	-0.059
474.2000	-0.064
474.3000	-0.059
474.4000	-0.054
474.5000	-0.051
474.6000	-0.054
474.7000	-0.054
474.8000	-0.048
474.9000	-0.051
475.0000	-0.059
475.1000	-0.060
475.2000	-0.050
475.3000	-0.046
475.4000	-0.049
475.5000	-0.044
475.6000	-0.029
475.7000	-0.027
475.8000	-0.026
475.9000	-0.029
476.0000	-0.022
476.1000	-0.020
476.2000	-0.019
476.3000	-0.016
476.4000	-0.010
476.5000	0.001
476.6000	0.006
476.7000	0.003
476.8000	0.003
476.9000	0.005
477.0000	0.007
477.1000	0.004
477.2000	0.000
477.3000	0.009
477.4000	0.011
477.5000	0.015
477.6000	0.011
477.7000	0.025
477.8000	0.034
477.9000	0.032
478.0000	0.031
478.1000	0.031
478.2000	0.039
478.3000	0.040
478.4000	0.033
478.5000	0.034
478.6000	0.037
478.7000	0.042
478.8000	0.034
478.9000	0.038
479.0000	0.042
479.1000	0.045
479.2000	0.044
479.3000	0.039
479.4000	0.040
479.5000	0.040
479.6000	0.036
479.7000	0.029
479.8000	0.030
479.9000	0.029
480.0000	0.034
480.1000	0.029
480.2000	0.029
480.3000	0.029
480.4000	0.029
480.5000	0.023
480.6000	0.017
480.7000	0.018
480.8000	0.015
480.9000	0.008
481.0000	0.000
481.1000	6.104E-4
481.2000	0.001
481.3000	0.000
481.4000	-0.007
481.5000	-0.006
481.6000	-0.010
481.7000	-0.010
481.8000	-0.018
481.9000	-0.025
482.0000	-0.023
482.1000	-0.022
482.2000	-0.031
482.3000	-0.029
482.4000	-0.028
482.5000	-0.027
482.6000	-0.043
482.7000	-0.039
482.8000	-0.043
482.9000	-0.034
483.0000	-0.049
483.1000	-0.049
483.2000	-0.047
483.3000	-0.035
483.4000	-0.041
483.5000	-0.047
483.6000	-0.047
483.7000	-0.040
483.8000	-0.046
483.9000	-0.054
484.0000	-0.059
484.1000	-0.046
484.2000	-0.043
484.3000	-0.049
484.4000	-0.053
484.5000	-0.043
484.6000	-0.038
484.7000	-0.040
484.8000	-0.049
484.9000	-0.042
485.0000	-0.037
485.1000	-0.040
485.2000	-0.045
485.3000	-0.034
485.4000	-0.021
485.5000	-0.017
485.6000	-0.024
485.7000	-0.018
485.8000	-0.008
485.9000	-0.002
486.0000	-0.014
486.1000	-0.012
486.2000	-0.004
486.3000	0.001
486.4000	-0.004
486.5000	-0.005
486.6000	0.004
486.7000	0.016
486.8000	0.015
486.9000	0.010
487.0000	0.009
487.1000	0.019
487.2000	0.020
487.3000	0.007
487.4000	0.010
487.5000	0.022
487.6000	0.021
487.7000	0.021
487.8000	0.020
487.9000	0.038
488.0000	0.038
488.1000	0.037
488.2000	0.029
488.3000	0.032
488.4000	0.035
488.5000	0.027
488.6000	0.024
488.7000	0.024
488.8000	0.033
488.9000	0.035
489.0000	0.031
489.1000	0.032
489.2000	0.043
489.3000	0.038
489.4000	0.027
489.5000	0.020
489.6000	0.017
489.7000	0.020
489.8000	0.018
489.9000	0.017
490.0000	0.021
490.1000	0.023
490.2000	0.024
490.3000	0.019
490.4000	0.014
490.5000	0.013
490.6000	0.007
490.7000	-6.104E-4
490.8000	-0.008
490.9000	-0.005
491.0000	-0.002
491.1000	-0.007
491.2000	-0.010
491.3000	-0.008
491.4000	-0.002
491.5000	-0.009
491.6000	-0.019
491.7000	-0.018
491.8000	-0.020
491.9000	-0.020
492.0000	-0.028
492.1000	-0.029
492.2000	-0.027
492.3000	-0.025
492.4000	-0.029
492.5000	-0.033
492.6000	-0.031
492.7000	-0.032
492.8000	-0.039
492.9000	-0.044
493.0000	-0.039
493.1000	-0.033
493.2000	-0.034
493.3000	-0.036
493.4000	-0.035
493.5000	-0.027
493.6000	-0.020
493.7000	-0.028
493.8000	-0.029
493.9000	-0.029
494.0000	-0.025
494.1000	-0.032
494.2000	-0.029
494.3000	-0.029
494.4000	-0.018
494.5000	-0.020
494.6000	-0.020
494.7000	-0.020
494.8000	-0.015
494.9000	-0.020
495.0000	-0.024
495.1000	-0.022
495.2000	-0.021
495.3000	-0.018
495.4000	-0.017
495.5000	-0.012
495.6000	0.000
495.7000	6.104E-4
495.8000	0.001
495.9000	0.000
496.0000	0.004
496.1000	0.010
496.2000	6.104E-4
496.3000	0.000
496.4000	0.005
496.5000	0.012
496.6000	0.010
496.7000	0.012
496.8000	0.017
496.9000	0.023
497.0000	0.018
497.1000	0.012
497.2000	0.015
497.3000	0.016
497.4000	0.015
497.5000	0.013
497.6000	0.010
497.7000	0.020
497.8000	0.026
497.9000	0.025
498.0000	0.021
498.1000	0.029
498.2000	0.030
498.3000	0.023
498.4000	0.016
498.5000	0.017
498.6000	0.021
498.7000	0.014
498.8000	0.012
498.9000	0.014
499.0000	0.018
499.1000	0.019
499.2000	0.015
499.3000	0.015
499.4000	0.009
499.5000	0.011
499.6000	0.004
499.7000	0.000
499.8000	0.004
499.9000	0.005
500.0000	0.005
500.1000	0.000
500.2000	0.006
500.3000	0.005
500.4000	6.104E-4
500.5000	-0.004
500.6000	-0.008
500.7000	-0.009
500.8000	-0.010
500.9000	-0.011
501.0000	-0.012
501.1000	-0.010
501.2000	-0.012
501.3000	-0.010
501.4000	-0.019
501.5000	-0.016
501.6000	-0.017
501.7000	-0.024
501.8000	-0.029
501.9000	-0.032
502.0000	-0.029
502.1000	-0.035
502.2000	-0.033
502.3000	-0.031
502.4000	-0.025
502.5000	-0.026
502.6000	-0.029
502.7000	-0.029
502.8000	-0.029
502.9000	-0.029
503.0000	-0.033
503.1000	-0.033
503.2000	-0.029
503.3000	-0.024
503.4000	-0.028
503.5000	-0.026
503.6000	-0.023
503.7000	-0.024
503.8000	-0.026
503.9000	-0.026
504.0000	-0.023
504.1000	-0.023
504.2000	-0.025
504.3000	-0.021
504.4000	-0.015
504.5000	-0.015
504.6000	-0.015
504.7000	-0.011
504.8000	-0.009
504.9000	-0.006
505.0000	-0.008
505.1000	-0.004
505.2000	-0.002
505.3000	0.000
505.4000	-6.104E-4
505.5000	6.104E-4
505.6000	0.005
505.7000	0.005
505.8000	0.004
505.9000	0.004
506.0000	0.013
506.1000	0.014
506.2000	0.007
506.3000	0.004
506.4000	0.013
506.5000	0.018
506.6000	0.013
506.7000	0.012
506.8000	0.015
506.9000	0.026
507.0000	0.026
507.1000	0.020
507.2000	0.015
507.3000	0.024
507.4000	0.024
507.5000	0.013
507.6000	0.011
507.7000	0.020
507.8000	0.024
507.9000	0.014
508.0000	0.014
508.1000	0.021
508.2000	0.026
508.3000	0.018
508.4000	0.009
508.5000	0.013
508.6000	0.016
508.7000	0.014
508.8000	0.004
508.9000	0.004
509.0000	0.016
509.1000	0.016
509.2000	0.010
509.3000	0.003
509.4000	0.009
509.5000	0.010
509.6000	0.000
509.7000	-0.011
509.8000	-0.010
509.9000	0.000
510.0000	-0.007
510.1000	-0.010
510.2000	-0.012
510.3000	0.000
510.4000	-0.008
510.5000	-0.014
510.6000	-0.020
510.7000	-0.016
510.8000	-0.015
510.9000	-0.026
511.0000	-0.028
511.1000	-0.024
511.2000	-0.019
511.3000	-0.025
511.4000	-0.029
511.5000	-0.026
511.6000	-0.022
511.7000	-0.024
511.8000	-0.032
511.9000	-0.030
512.0000	-0.029
512.1000	-0.024
512.2000	-0.031
512.3000	-0.029
512.4000	-0.024
512.5000	-0.021
512.6000	-0.026
512.7000	-0.030
512.8000	-0.024
512.9000	-0.024
513.0000	-0.029
513.1000	-0.031
513.2000	-0.026
513.3000	-0.020
513.4000	-0.020
513.5000	-0.018
513.6000	-0.013
513.7000	-0.007
513.8000	-0.012
513.9000	-0.015
514.0000	-0.015
514.1000	-0.014
514.2000	-0.015
514.3000	-0.020
514.4000	-0.018
514.5000	-0.010
514.6000	0.000
514.7000	0.000
514.8000	0.000
514.9000	0.010
515.0000	0.015
515.1000	0.013
515.2000	0.001
515.3000	0.008
515.4000	0.013
515.5000	0.010
515.6000	0.004
515.7000	0.010
515.8000	0.019
515.9000	0.011
516.0000	0.010
516.1000	0.010
516.2000	0.008
516.3000	0.015
516.4000	0.010
516.5000	0.008
516.6000	0.010
516.7000	0.019
516.8000	0.024
516.9000	0.031
517.0000	0.018
517.1000	0.029
517.2000	0.023
517.3000	0.023
517.4000	0.015
517.5000	0.005
517.6000	-0.009
517.7000	0.010
517.8000	0.002
517.9000	0.012
518.0000	6.104E-4
518.1000	0.023
518.2000	0.022
518.3000	0.020
518.4000	0.009
518.5000	-0.002
518.6000	0.006
518.7000	0.018
518.8000	-0.002
518.9000	-0.015
519.0000	0.010
519.1000	-0.005
519.2000	0.005
519.3000	-0.007
519.4000	-0.007
519.5000	0.003
519.6000	-0.007
519.7000	-0.011
519.8000	-0.031
519.9000	0.002
520.0000	-0.017
520.1000	0.019
520.2000	-0.026
520.3000	-0.016
520.4000	0.002
520.5000	-0.009
520.6000	-0.046
520.7000	-0.029
520.8000	-0.025
520.9000	-0.013
521.0000	-0.039
521.1000	-0.046
521.2000	-0.031
521.3000	-0.021
521.4000	-0.039
521.5000	-0.030
521.6000	-0.039
521.7000	-0.021
521.8000	-0.035
521.9000	-0.035
522.0000	-0.029
522.1000	-0.020
522.2000	-0.029
522.3000	-0.039
522.4000	-0.029
522.5000	-0.017
522.6000	-0.020
522.7000	-0.032
522.8000	-0.034
522.9000	-0.026
523.0000	-0.005
523.1000	-0.043
523.2000	-0.034
523.3000	-0.035
523.4000	6.104E-4
523.5000	-0.016
523.6000	-0.027
523.7000	-0.015
523.8000	0.005
523.9000	0.005
524.0000	-0.013
524.1000	-0.010
524.2000	6.104E-4
524.3000	0.010
524.4000	-0.010
524.5000	-0.009
524.6000	0.015
524.7000	0.024
524.8000	0.004
524.9000	0.005
525.0000	0.012
525.1000	0.029
525.2000	0.000
525.3000	-6.104E-4
525.4000	-0.008
525.5000	0.018
525.6000	0.003
525.7000	-6.104E-4
525.8000	0.000
525.9000	0.016
526.0000	0.020
526.1000	0.005
526.2000	0.005
526.3000	0.018
526.4000	0.029
526.5000	0.014
526.6000	6.104E-4
526.7000	0.009
526.8000	0.013
526.9000	0.015
527.0000	-6.104E-4
527.1000	0.005
527.2000	0.020
527.3000	0.029
527.4000	0.006
527.5000	0.015
527.6000	0.024
527.7000	0.024
527.8000	0.013
527.9000	0.000
528.0000	0.009
528.1000	0.009
528.2000	0.006
528.3000	-0.010
528.4000	0.009
528.5000	0.020
528.6000	0.000
528.7000	-0.023
528.8000	-0.022
528.9000	-0.015
529.0000	-0.015
529.1000	-0.038
529.2000	-0.005
529.3000	0.003
529.4000	0.012
529.5000	-0.015
529.6000	-0.016
529.7000	-0.010
529.8000	-0.010
529.9000	-0.019
530.0000	-0.032
530.1000	-0.010
530.2000	-0.005
530.3000	-0.020
530.4000	-0.049
530.5000	-0.034
530.6000	-0.019
530.7000	-0.008
530.8000	-0.034
530.9000	-0.027
531.0000	-0.026
531.1000	-0.015
531.2000	-0.049
531.3000	-0.035
531.4000	-0.026
531.5000	0.000
531.6000	-0.031
531.7000	-0.026
531.8000	-0.027
531.9000	-6.104E-4
532.0000	-0.018
532.1000	-0.022
532.2000	-0.026
532.3000	-0.012
532.4000	-0.010
532.5000	-0.025
532.6000	-0.028
532.7000	-0.015
532.8000	-0.003
532.9000	-0.015
533.0000	-0.026
